ID,Fp1_F7,Fp1_T7,Fp1_P7,Fp1_O1,Fp1_Fp2,Fp1_F8,Fp1_T8,Fp1_P8,Fp1_O2,Fp1_F3,Fp1_C3,Fp1_P3,Fp1_F4,Fp1_C4,Fp1_P4,Fp1_Fz,Fp1_Cz,Fp1_Pz,F7_T7,F7_P7,F7_O1,F7_Fp2,F7_F8,F7_T8,F7_P8,F7_O2,F7_F3,F7_C3,F7_P3,F7_F4,F7_C4,F7_P4,F7_Fz,F7_Cz,F7_Pz,T7_P7,T7_O1,T7_Fp2,T7_F8,T7_T8,T7_P8,T7_O2,T7_F3,T7_C3,T7_P3,T7_F4,T7_C4,T7_P4,T7_Fz,T7_Cz,T7_Pz,P7_O1,P7_Fp2,P7_F8,P7_T8,P7_P8,P7_O2,P7_F3,P7_C3,P7_P3,P7_F4,P7_C4,P7_P4,P7_Fz,P7_Cz,P7_Pz,O1_Fp2,O1_F8,O1_T8,O1_P8,O1_O2,O1_F3,O1_C3,O1_P3,O1_F4,O1_C4,O1_P4,O1_Fz,O1_Cz,O1_Pz,Fp2_F8,Fp2_T8,Fp2_P8,Fp2_O2,Fp2_F3,Fp2_C3,Fp2_P3,Fp2_F4,Fp2_C4,Fp2_P4,Fp2_Fz,Fp2_Cz,Fp2_Pz,F8_T8,F8_P8,F8_O2,F8_F3,F8_C3,F8_P3,F8_F4,F8_C4,F8_P4,F8_Fz,F8_Cz,F8_Pz,T8_P8,T8_O2,T8_F3,T8_C3,T8_P3,T8_F4,T8_C4,T8_P4,T8_Fz,T8_Cz,T8_Pz,P8_O2,P8_F3,P8_C3,P8_P3,P8_F4,P8_C4,P8_P4,P8_Fz,P8_Cz,P8_Pz,O2_F3,O2_C3,O2_P3,O2_F4,O2_C4,O2_P4,O2_Fz,O2_Cz,O2_Pz,F3_C3,F3_P3,F3_F4,F3_C4,F3_P4,F3_Fz,F3_Cz,F3_Pz,C3_P3,C3_F4,C3_C4,C3_P4,C3_Fz,C3_Cz,C3_Pz,P3_F4,P3_C4,P3_P4,P3_Fz,P3_Cz,P3_Pz,F4_C4,F4_P4,F4_Fz,F4_Cz,F4_Pz,C4_P4,C4_Fz,C4_Cz,C4_Pz,P4_Fz,P4_Cz,P4_Pz,Fz_Cz,Fz_Pz,Cz_Pz
S_1063084_e_001.set,0.6132274,0.3967693,0.1386586,0.07857001,0.02196244,0.01267355,0.01380767,0.02354197,0.03342409,0.3779932,0.2862917,0.04019635,0.2472053,0.1079797,0.0591852,0.08922846,0.0556885,0.0159394,0.7132,0.2695386,0.1559969,0.0207055,0.01647296,0.02738753,0.03768887,0.0781787,0.5844129,0.5796345,0.1072547,0.1205181,0.03880481,0.02399375,0.01887123,0.0232825,0.03556366,0.5355209,0.3686987,0.01935249,0.03648378,0.08306722,0.08888134,0.1917787,0.3739757,0.5635048,0.2945532,0.05944517,0.02214982,0.03705665,0.02751853,0.0385582,0.1120173,0.8238945,0.02056933,0.06820602,0.1203122,0.1999746,0.4108241,0.09616989,0.289444,0.6282578,0.02643113,0.03908219,0.1155353,0.036024,0.03856004,0.2424173,0.02395065,0.08701723,0.1564756,0.3117495,0.6177056,0.04689556,0.1851308,0.5985179,0.04012812,0.07587164,0.2181244,0.02744356,0.05168893,0.3072553,0.3098229,0.1046746,0.03890809,0.02955604,0.1441167,0.07782646,0.01451675,0.05872049,0.01363101,0.01503496,0.2574853,0.1392335,0.02472064,0.6330246,0.2581553,0.1753512,0.07044831,0.02031299,0.03080747,0.2143263,0.1155745,0.09039259,0.08464613,0.0138062,0.02509232,0.369991,0.3034847,0.02179043,0.01763375,0.08152319,0.1317283,0.1384204,0.1473255,0.03628083,0.01839707,0.07298187,0.7289334,0.02408624,0.04169989,0.190228,0.242181,0.4533785,0.7113152,0.02356715,0.07816444,0.2465973,0.02371582,0.09343739,0.3674883,0.1404899,0.277594,0.5857544,0.0213182,0.08621319,0.3593169,0.6479408,0.04647209,0.1918696,0.0471746,0.02730529,0.09194132,0.08758311,0.02232399,0.2809987,0.07003222,0.01388329,0.02817218,0.05958812,0.1727865,0.1780242,0.02880017,0.07045653,0.20437,0.02561467,0.12724,0.6000561,0.5449432,0.3687328,0.04889075,0.06643736,0.09553687,0.678364,0.09759302,0.1470033,0.2016393,0.08721061,0.2033292,0.4030668,0.447331,0.08262916,0.4252389
S_1262610_e_001.set,0.3517339,0.08783053,0.02561399,0.03420782,0.3051351,0.2043771,0.1429245,0.08374749,0.05487688,0.2864189,0.06936501,0.03968036,0.08497883,0.07922062,0.08919469,0.04443664,0.035482,0.06188826,0.6225098,0.1915139,0.03774367,0.1396763,0.06502853,0.04891885,0.04601651,0.03660692,0.3007182,0.1971169,0.07721107,0.06624348,0.05960984,0.04246732,0.03442978,0.04178123,0.04625045,0.5150105,0.1263719,0.05489295,0.05358408,0.121587,0.1518508,0.1476126,0.1651921,0.3012634,0.224824,0.04584482,0.08527227,0.1034641,0.03633831,0.06775869,0.1109857,0.4600612,0.03777509,0.07297207,0.1946613,0.2877808,0.3547153,0.06753207,0.2758618,0.5432626,0.0328384,0.1177627,0.2033717,0.02254418,0.07745077,0.2414006,0.02784202,0.07786896,0.1930371,0.3385966,0.6366086,0.01975556,0.1159184,0.4838646,0.03087662,0.1323743,0.3283862,0.01857536,0.07976086,0.4084131,0.4205393,0.1908841,0.09510019,0.06155155,0.03609413,0.04389543,0.05119243,0.3757727,0.1683619,0.1022985,0.1111208,0.08299329,0.07780216,0.5707239,0.2971498,0.1829701,0.04484364,0.03567011,0.06785347,0.3418637,0.3077899,0.2564593,0.03118716,0.06393771,0.1485992,0.6271319,0.431367,0.03343222,0.09143793,0.1917781,0.2248806,0.4882719,0.5457649,0.04975456,0.1358827,0.3550903,0.7347982,0.02810774,0.1291162,0.2999635,0.1249146,0.4105667,0.7222442,0.04515823,0.1652613,0.5258074,0.0307595,0.1243886,0.4115863,0.06297155,0.2808463,0.6464704,0.03911365,0.1379839,0.6212753,0.5841263,0.1401306,0.09839197,0.09403127,0.05310145,0.4465108,0.2839283,0.08203392,0.4925829,0.121363,0.2577012,0.2281956,0.3783261,0.5284856,0.3469341,0.07814014,0.2483247,0.4041754,0.1132634,0.2804223,0.5953211,0.4402381,0.1968016,0.4720849,0.3151855,0.1639475,0.6857423,0.2728899,0.5236525,0.5205642,0.1112131,0.3854812,0.7932149,0.588753,0.1625929,0.4877524
S_1262610_e_002.set,0.5308198,0.1872648,0.05793117,0.0495244,0.1783047,0.1445448,0.0897497,0.06201262,0.04829496,0.4995574,0.236235,0.06338358,0.07461758,0.06280459,0.04279713,0.04117576,0.05670656,0.04197178,0.6372236,0.1649432,0.03825499,0.09537559,0.05443525,0.04723509,0.03870941,0.04618253,0.4091372,0.3434464,0.1014839,0.04988974,0.06832189,0.05968145,0.02146227,0.05788319,0.06487148,0.5210163,0.1122068,0.03263357,0.04465077,0.07446034,0.09039939,0.1203631,0.1851313,0.3477969,0.2413159,0.03736911,0.07134538,0.1024146,0.01647302,0.05109493,0.1041089,0.5005581,0.05638707,0.09426858,0.1402471,0.1905753,0.3165585,0.05975796,0.2017417,0.5310861,0.05222507,0.09410556,0.1846717,0.02849687,0.05075259,0.216309,0.06340678,0.1085648,0.1801698,0.2833363,0.5231348,0.03491522,0.06691049,0.4184526,0.06291299,0.1497567,0.3007182,0.03835473,0.06721195,0.3360207,0.6244523,0.4356362,0.2669229,0.1676147,0.04306803,0.04519909,0.07336323,0.54027,0.3100085,0.198597,0.09181908,0.1218712,0.1150175,0.7981821,0.5010195,0.3173084,0.05196694,0.03297525,0.08020294,0.5330722,0.4909509,0.3550506,0.0478079,0.1015778,0.1912551,0.7537622,0.5302686,0.04327031,0.04690334,0.1334186,0.3795199,0.6120241,0.5942096,0.03284922,0.1418089,0.3434867,0.7819768,0.04175054,0.05544316,0.1984616,0.2523853,0.5468363,0.7844397,0.0478773,0.1823028,0.5361692,0.04352238,0.07430353,0.3541853,0.1737441,0.4061937,0.7530569,0.04212626,0.1509457,0.6366779,0.6325697,0.1337267,0.06349735,0.07288256,0.05106262,0.3339802,0.319513,0.08366,0.4010025,0.07328713,0.1410749,0.1318134,0.2662947,0.4496918,0.2292661,0.09968968,0.1750368,0.3414169,0.07630287,0.1968966,0.5434421,0.5174921,0.2906049,0.3660702,0.3227303,0.2140806,0.7107973,0.2111201,0.4939712,0.5242971,0.09664066,0.3665428,0.8304142,0.51781,0.1205277,0.4211411
S_1262610_e_003.set,0.4892425,0.1629993,0.03436498,0.04651509,0.2238584,0.1665863,0.1084051,0.08046815,0.07132499,0.4580154,0.2133093,0.04773874,0.06632121,0.06634669,0.06705373,0.06713121,0.04500795,0.04966763,0.6523013,0.161589,0.04427495,0.08736264,0.04479209,0.03911347,0.0397523,0.02742292,0.3697802,0.3326139,0.08195355,0.03330382,0.04008249,0.03096504,0.03787763,0.03401216,0.02330722,0.5140675,0.1353209,0.02907196,0.0429279,0.06621107,0.07032723,0.0784087,0.1707185,0.3530246,0.2783131,0.03721357,0.0462519,0.05334495,0.03924537,0.05023649,0.06448662,0.5409189,0.03239239,0.07866021,0.1260724,0.1957458,0.265801,0.05079812,0.211166,0.5812957,0.03872842,0.083882,0.1498436,0.0310929,0.07233681,0.1920005,0.04297995,0.0876179,0.1561276,0.2912915,0.5095545,0.03866882,0.08312458,0.4676503,0.04363345,0.1025059,0.2656637,0.03163312,0.06630815,0.3161783,0.674665,0.4672936,0.2893956,0.1880349,0.02742689,0.02800708,0.04600681,0.6540034,0.4523884,0.2911362,0.2280555,0.2098449,0.1711254,0.8253948,0.5339446,0.3474712,0.0212094,0.03089644,0.08408243,0.6285493,0.5937321,0.4800313,0.1517525,0.2101965,0.2795921,0.7635243,0.5348967,0.02447313,0.04464677,0.139575,0.4943123,0.6375445,0.6583872,0.121066,0.2205745,0.4162858,0.7732882,0.03018366,0.04797965,0.227865,0.3168147,0.5198411,0.7627766,0.09334559,0.1971088,0.538281,0.03478321,0.06125249,0.3424124,0.1948667,0.3828523,0.7535415,0.06477637,0.1532475,0.6533929,0.6170944,0.1063296,0.07948394,0.0595541,0.04706207,0.4623814,0.2941025,0.07659161,0.3855011,0.09912537,0.1062337,0.1097028,0.3374869,0.3700114,0.1769323,0.07918087,0.1713678,0.346024,0.1025647,0.2154749,0.5282489,0.7147282,0.4302805,0.5443743,0.5204484,0.2910104,0.7101814,0.3750911,0.5474109,0.547414,0.2099712,0.4100306,0.8517054,0.7012538,0.2076838,0.4379729
S_1262610_e_004.set,0.493414,0.1449213,0.03611071,0.05026824,0.3063204,0.2163883,0.1213401,0.09573618,0.1063871,0.4606787,0.1668514,0.02860804,0.1334057,0.0800582,0.0821507,0.08069605,0.0734676,0.05296821,0.6268269,0.1356588,0.04388792,0.1653076,0.06450137,0.03891223,0.02944257,0.04422002,0.3605894,0.3144387,0.1042175,0.07325303,0.0466918,0.04064636,0.06993626,0.07811828,0.04825204,0.4481625,0.1458568,0.05573488,0.02387919,0.03634993,0.05719537,0.08531241,0.1655629,0.3441574,0.3111902,0.0304337,0.03856653,0.06829178,0.05079517,0.07790528,0.1028331,0.564809,0.04242337,0.0446939,0.07078113,0.134266,0.269269,0.06559723,0.1949341,0.5759815,0.03382663,0.04856678,0.1357571,0.02459904,0.05452632,0.1953164,0.06178664,0.08049084,0.1058794,0.1966626,0.4680704,0.02600039,0.08425131,0.5010913,0.05098121,0.08618513,0.2353416,0.01983014,0.05375509,0.29816,0.5604232,0.3167961,0.1734455,0.1249875,0.05348679,0.04458939,0.05179024,0.6255686,0.3068318,0.1763168,0.160566,0.1446903,0.1088761,0.7212705,0.4087245,0.2965845,0.04971447,0.05385734,0.07096307,0.6092449,0.5546954,0.4121861,0.102019,0.1951801,0.2402141,0.6742086,0.4638906,0.0334213,0.03738711,0.09294683,0.3913435,0.6549622,0.6271397,0.04704946,0.2131225,0.3753076,0.6347402,0.04543113,0.01975919,0.1446709,0.2018034,0.4790196,0.7129782,0.02725572,0.1593361,0.4735755,0.05008689,0.03146275,0.2796578,0.1410806,0.3575052,0.670132,0.01605229,0.1146985,0.5570543,0.5989893,0.09517835,0.05553048,0.04849555,0.02437208,0.4116902,0.2759713,0.04305721,0.4008644,0.07886093,0.1084537,0.08628093,0.3100058,0.3841356,0.1792227,0.07377875,0.1398825,0.283528,0.05850182,0.1692032,0.4877941,0.5783165,0.3076808,0.4230103,0.4075426,0.22452,0.7177031,0.2555879,0.5452787,0.5264795,0.09101336,0.366709,0.8217034,0.5920302,0.1095121,0.4020314
S_1262610_e_005.set,0.579896,0.2350269,0.05526558,0.0500548,0.2701975,0.201895,0.1167079,0.08763885,0.08119113,0.5109816,0.2364838,0.03453814,0.09506585,0.03762377,0.04749957,0.07902233,0.05224399,0.03184595,0.6273071,0.1290794,0.02821797,0.192412,0.08634058,0.05096471,0.06124406,0.04533251,0.4094213,0.2985849,0.07186922,0.09401791,0.04697859,0.03709863,0.05828504,0.05751288,0.04500344,0.4595413,0.06515869,0.08259319,0.03292665,0.03998254,0.0641695,0.06772522,0.1845755,0.309487,0.223427,0.05616652,0.03700287,0.04908914,0.0570292,0.06838685,0.07239802,0.4158972,0.01978828,0.05313638,0.08858478,0.1307817,0.2560181,0.0626006,0.2000536,0.4958009,0.04230871,0.05695249,0.1332578,0.04221852,0.06948219,0.169514,0.0471581,0.110566,0.2015758,0.3087887,0.5862789,0.05011425,0.03943775,0.390427,0.06402342,0.1343762,0.3166999,0.03460374,0.04328366,0.3085636,0.5686005,0.2977885,0.1602011,0.1109829,0.09363288,0.03762086,0.03672976,0.5129825,0.2284828,0.1444016,0.09495889,0.06477134,0.07685655,0.7296622,0.3796257,0.3000316,0.1150645,0.04957964,0.0874088,0.5360435,0.4541897,0.3351659,0.06297534,0.08405004,0.2005245,0.6909084,0.5224546,0.101831,0.04817855,0.1492463,0.3247985,0.5812997,0.6072264,0.04826578,0.1042829,0.3818273,0.675604,0.08352394,0.04939688,0.222714,0.1786254,0.4654571,0.7215239,0.0371095,0.09309314,0.4862689,0.08311615,0.05135423,0.3509181,0.1431077,0.3872618,0.7420853,0.04524771,0.08876625,0.6004689,0.654689,0.09871785,0.03456141,0.04210485,0.0431219,0.420707,0.2831354,0.06107535,0.3636968,0.05946524,0.09017263,0.07264907,0.3737901,0.3961152,0.1611492,0.09662011,0.2189271,0.370684,0.09908935,0.1993329,0.5557293,0.5251473,0.243507,0.4117409,0.3352906,0.1950853,0.6987177,0.2496873,0.4725957,0.568536,0.0810826,0.2606598,0.8310696,0.6313,0.128571,0.3575983
S_1262610_e_006.set,0.5060006,0.1928973,0.07757674,0.04274395,0.268961,0.1896285,0.116302,0.07774274,0.06476511,0.4270711,0.2290837,0.07264317,0.08523141,0.06925519,0.0666976,0.06479717,0.05367994,0.05340097,0.6657692,0.2664967,0.05662434,0.1288345,0.0595225,0.0471959,0.03720196,0.04572099,0.3837228,0.3533005,0.1363132,0.046587,0.03603456,0.03886673,0.04596065,0.05331931,0.04501816,0.6444137,0.1405155,0.05410606,0.03704982,0.05014228,0.05315661,0.09710439,0.2325406,0.3905133,0.2970157,0.0375663,0.05243366,0.06622445,0.05193766,0.08099428,0.09132197,0.3999856,0.0396135,0.05562574,0.09326244,0.125179,0.2158432,0.1076157,0.2864099,0.5307684,0.05052735,0.09294615,0.1329291,0.06052955,0.07850639,0.1853566,0.05341283,0.1080436,0.1833663,0.2968283,0.5856431,0.04261354,0.08089538,0.3821538,0.08766027,0.159035,0.3105386,0.07145669,0.08752281,0.3377237,0.544082,0.2946205,0.1594811,0.1294104,0.04425362,0.02761162,0.04069516,0.5541109,0.2897265,0.1856135,0.1377491,0.08750783,0.1246557,0.7615401,0.4307674,0.3102711,0.04153445,0.03124819,0.07023698,0.5584317,0.4969868,0.3661124,0.09769247,0.1248308,0.212621,0.7158759,0.5138888,0.04324103,0.03658739,0.1135955,0.3747343,0.6253098,0.6055099,0.07831622,0.1579237,0.3410544,0.7166421,0.0489891,0.04067232,0.1756461,0.2315488,0.5352579,0.7516809,0.06529381,0.149675,0.4659292,0.05863639,0.05790864,0.2738888,0.1845562,0.4033239,0.7271458,0.07012854,0.1371344,0.5772755,0.6766365,0.1862476,0.05736525,0.06539728,0.05199874,0.4296215,0.3134057,0.09551902,0.4728622,0.07227638,0.1247301,0.09817569,0.3243724,0.4098718,0.2022632,0.1055273,0.2282601,0.3134021,0.1484192,0.2897799,0.5178578,0.5640554,0.3241017,0.4681572,0.3638796,0.276406,0.7382046,0.2893279,0.4981955,0.5738202,0.1458201,0.345583,0.8003194,0.6048554,0.206097,0.4838652
S_1262610_e_007.set,0.5212954,0.2599888,0.0885804,0.06306896,0.2427937,0.2047689,0.1408835,0.09414844,0.06729451,0.5000218,0.2435257,0.05447978,0.09433188,0.07554861,0.07131299,0.08803771,0.04650472,0.0360565,0.7246553,0.2064395,0.05163619,0.1640144,0.08156986,0.04720396,0.03019833,0.04363557,0.3791699,0.3348531,0.1046235,0.0740925,0.04273037,0.04852697,0.03989163,0.04172397,0.05851543,0.5144126,0.0861196,0.1227534,0.05061095,0.03509376,0.0331168,0.06833825,0.2429065,0.374384,0.2342748,0.05885177,0.02877343,0.03834442,0.03157113,0.03368312,0.06700207,0.3914198,0.08401902,0.04681485,0.05743986,0.09295958,0.2051851,0.09115046,0.2321227,0.4685767,0.06497572,0.0352463,0.07979041,0.03926963,0.04135059,0.1130095,0.05759057,0.06598599,0.1114236,0.2096132,0.5250078,0.0427238,0.03191836,0.3116748,0.04692142,0.05599036,0.208137,0.03828775,0.02304854,0.2266283,0.5881691,0.2999972,0.1571918,0.09093054,0.03583877,0.02779594,0.04819518,0.6413078,0.3674338,0.1799221,0.1981345,0.1185547,0.09119225,0.6629632,0.3565474,0.1928004,0.05277043,0.02916542,0.0274858,0.5013266,0.4967384,0.3196794,0.08581094,0.1092423,0.1396403,0.6141388,0.3628105,0.06749113,0.03266972,0.04472238,0.3117878,0.4943835,0.5011765,0.06437837,0.09872492,0.2235664,0.6366839,0.03866585,0.01988514,0.07575963,0.1882494,0.3870124,0.6832455,0.05356161,0.1002402,0.3917302,0.04671505,0.02172997,0.1778575,0.1079039,0.2611579,0.6542453,0.04541758,0.06912574,0.5321261,0.6529077,0.1157484,0.05783218,0.0485606,0.03040183,0.4199355,0.2457441,0.038594,0.3958297,0.05132976,0.06277053,0.03671718,0.2937341,0.3118192,0.1140856,0.03128232,0.05814171,0.1647647,0.07506664,0.1260997,0.3880556,0.5861389,0.2841253,0.5077215,0.3774572,0.1975925,0.6524861,0.2904747,0.4747346,0.4422362,0.1135741,0.29175,0.7697248,0.6044599,0.1569395,0.3939036
S_1262610_e_008.set,0.5114434,0.2546686,0.078541,0.04538264,0.2916095,0.1861799,0.08906306,0.03657462,0.02791792,0.5205741,0.2420864,0.08923519,0.08794624,0.0573168,0.03613965,0.1044931,0.0897617,0.04195108,0.7388692,0.2560393,0.0561947,0.1554825,0.06179009,0.03242658,0.02409347,0.02586123,0.4527896,0.3815901,0.1726472,0.06008122,0.04065046,0.04106296,0.05544745,0.08613198,0.05359298,0.5351345,0.1030172,0.08652298,0.03632235,0.05141934,0.04976738,0.05673827,0.2654164,0.3571073,0.2391643,0.04822453,0.04134975,0.04964558,0.03793686,0.07045659,0.06523506,0.3749281,0.04203016,0.04813723,0.1054605,0.1396445,0.2156337,0.1071409,0.2540099,0.4738664,0.05086979,0.08682335,0.1469874,0.03428412,0.08473546,0.1785337,0.0488552,0.06499907,0.1403282,0.2284953,0.537097,0.04382239,0.09153331,0.4424901,0.07189924,0.1169921,0.2916642,0.07552403,0.1102444,0.3578953,0.5911534,0.2944472,0.132954,0.09906717,0.06701009,0.04304954,0.05725972,0.493055,0.2435641,0.139535,0.1243049,0.08973401,0.1111375,0.7381983,0.3939705,0.2389184,0.05963421,0.05021819,0.07955739,0.5084584,0.4608806,0.3261402,0.08910476,0.1301481,0.1975733,0.7150258,0.4734565,0.03507867,0.05197003,0.1436586,0.3544063,0.5846252,0.5991253,0.07964922,0.1614928,0.3602596,0.6980578,0.02431997,0.0475456,0.2155806,0.2083717,0.5114399,0.7383341,0.06626709,0.1671966,0.499764,0.02889564,0.06805382,0.3570702,0.1525656,0.3756359,0.7349869,0.08154658,0.1690198,0.664847,0.701984,0.2161212,0.0604788,0.08143125,0.06610236,0.4113015,0.3542986,0.1132739,0.4816898,0.07938942,0.1461284,0.1342573,0.3473531,0.4701424,0.23078,0.1044504,0.2280376,0.3758445,0.1587634,0.2985688,0.5289938,0.6098897,0.3274086,0.4892835,0.3797136,0.2571735,0.7152292,0.3624216,0.5458186,0.5686722,0.1950223,0.3787375,0.8491847,0.6524853,0.2335079,0.4529574
S_1262610_e_009.set,0.4325103,0.1547449,0.05693034,0.05228333,0.3347157,0.2505416,0.1430669,0.07309063,0.08252935,0.3630623,0.1355811,0.03466246,0.1382641,0.07494542,0.05418538,0.04659797,0.04053188,0.03632373,0.6935765,0.2454477,0.0508479,0.2145278,0.0808273,0.04637956,0.03930678,0.03713964,0.2536707,0.2376604,0.07981636,0.1129209,0.05971377,0.03612912,0.05144575,0.05044655,0.03134196,0.6071755,0.1156234,0.1122887,0.05330405,0.05657605,0.04646875,0.05909823,0.1319529,0.284353,0.256791,0.05915712,0.0393688,0.04555631,0.04039555,0.04401346,0.05084592,0.384386,0.06059195,0.06721185,0.09768416,0.1152631,0.1867965,0.06600196,0.2262656,0.538543,0.0366297,0.03773585,0.09510405,0.02527241,0.03785445,0.120032,0.05172841,0.09672999,0.1346403,0.2370193,0.5020362,0.04436546,0.05549942,0.3465691,0.0495679,0.08408398,0.2280312,0.02610115,0.03458809,0.2590944,0.6237162,0.361504,0.1519866,0.1236776,0.04583538,0.03059953,0.04125963,0.6193681,0.3466339,0.1985993,0.1798518,0.1606565,0.124315,0.7718365,0.3705812,0.2926772,0.04779582,0.03221091,0.07972785,0.5553018,0.5310639,0.3893735,0.1059798,0.1850754,0.2520592,0.6473304,0.4685901,0.03654174,0.04897122,0.129469,0.4046739,0.6138323,0.5990019,0.09416783,0.2122792,0.3910776,0.7026522,0.03800721,0.04202734,0.153421,0.2123919,0.4440665,0.713123,0.06352762,0.1695964,0.4927352,0.0604695,0.05616254,0.254705,0.1534245,0.348315,0.7035148,0.03688869,0.1246509,0.6014776,0.6162533,0.1499219,0.03985012,0.0484158,0.04469275,0.3988954,0.2867915,0.07251768,0.422981,0.06585716,0.1216737,0.1008505,0.2869515,0.359311,0.1766569,0.06632107,0.1590462,0.2674897,0.1077329,0.2070065,0.4492663,0.5986782,0.3336901,0.4944795,0.4260646,0.2551698,0.7109822,0.3342325,0.5370877,0.5508664,0.1788838,0.3675124,0.8321084,0.6800175,0.2136686,0.4372895
S_1262610_e_010.set,0.5403031,0.2220571,0.05914539,0.02740331,0.3166133,0.2053831,0.08860253,0.02819427,0.02265059,0.4657528,0.2103716,0.05099448,0.09839325,0.05065741,0.02833482,0.05708883,0.03865887,0.03097307,0.6693248,0.2196263,0.03196047,0.1658574,0.06863869,0.0267384,0.02267279,0.02352422,0.3613256,0.3288033,0.1233961,0.06967917,0.02927083,0.01984735,0.03973939,0.03418016,0.02464299,0.5751012,0.1000677,0.06891365,0.03677588,0.05172526,0.05422975,0.0722099,0.1597877,0.3326771,0.271497,0.04312267,0.02961673,0.0338101,0.03374994,0.03205647,0.04928898,0.3408986,0.03329378,0.04013202,0.07126491,0.117267,0.1946046,0.03425208,0.1587227,0.4087269,0.02303869,0.01219572,0.0592261,0.02791637,0.02897199,0.07752977,0.05856477,0.1041583,0.1438555,0.2164899,0.5578848,0.01829636,0.04463685,0.3552609,0.06365519,0.08507269,0.2179818,0.02717358,0.02707212,0.2370309,0.6096457,0.3111195,0.1255667,0.09020562,0.04684086,0.02908274,0.05206237,0.5546491,0.2578972,0.1409442,0.1041026,0.06508877,0.09573633,0.7483798,0.358447,0.2449445,0.06524935,0.02373012,0.06825676,0.5081931,0.4146812,0.3079695,0.04921454,0.04735934,0.177049,0.6538572,0.4364884,0.05081775,0.03703967,0.1058814,0.3110891,0.5374393,0.5447338,0.03942735,0.06832945,0.3040929,0.5975247,0.04659682,0.04267573,0.1260193,0.1491482,0.3882502,0.6352747,0.03766972,0.06071559,0.3742048,0.03687244,0.04285869,0.2512413,0.1147242,0.2876241,0.6446184,0.04186253,0.05000184,0.5389516,0.6546771,0.1332536,0.03984351,0.06152609,0.04596675,0.4538705,0.3463442,0.07346152,0.4144356,0.06599262,0.1198943,0.08896902,0.3409441,0.3983861,0.1777283,0.06377618,0.1432993,0.2387424,0.07998894,0.1346947,0.4165166,0.5448528,0.2731247,0.4238895,0.3081991,0.2195931,0.7074724,0.2849503,0.4371811,0.5455255,0.1280197,0.2421145,0.804447,0.6465719,0.1627158,0.3138956
S_1262610_e_011.set,0.5019144,0.1875865,0.04447364,0.03132203,0.3597175,0.255775,0.1621959,0.101007,0.07432971,0.4843237,0.2299846,0.04288228,0.1398111,0.1011343,0.08653916,0.05877735,0.05473518,0.05005478,0.692028,0.2238598,0.03567433,0.2060824,0.1000382,0.05357143,0.04256352,0.03556326,0.3682224,0.3865603,0.1283413,0.1192213,0.05628698,0.03690026,0.0555203,0.06206994,0.02737149,0.5630212,0.1136792,0.09657697,0.03582703,0.03320527,0.05519926,0.07799998,0.15691,0.3531862,0.2955377,0.07700439,0.03784511,0.03892536,0.04740637,0.04532395,0.05755432,0.4198128,0.03987999,0.04408422,0.07970987,0.1256032,0.2433669,0.03500292,0.1774076,0.4759564,0.03776576,0.03710275,0.08932166,0.05517961,0.03313566,0.1231555,0.05688045,0.1148746,0.1566175,0.24299,0.5259053,0.03091014,0.04846722,0.4137332,0.05199221,0.09334477,0.2400886,0.03758477,0.04459127,0.2923658,0.606678,0.3587487,0.1724704,0.1206589,0.08503403,0.05317641,0.03665908,0.6382334,0.3340842,0.1898408,0.1434197,0.08537078,0.1111684,0.776122,0.3884854,0.3027176,0.1290844,0.06737584,0.04486787,0.5120838,0.4834779,0.3707224,0.06553166,0.0861689,0.2247038,0.6747755,0.5188856,0.09507992,0.04443607,0.07917396,0.3275062,0.6111371,0.6243287,0.04087526,0.09414863,0.389222,0.6977557,0.0547963,0.03788206,0.1567599,0.1688055,0.4900874,0.7548188,0.03710932,0.0962832,0.5496625,0.05747005,0.03978077,0.2814816,0.1137342,0.3585312,0.7277218,0.03893495,0.09318953,0.6540626,0.6267265,0.09825401,0.04080389,0.04281248,0.03640046,0.3991809,0.3311552,0.04783516,0.3689705,0.03558899,0.06488411,0.060307,0.2096916,0.3361776,0.1270855,0.03212332,0.07701449,0.2067153,0.0255347,0.09074591,0.3636678,0.5512977,0.2700392,0.4529879,0.3204972,0.2097561,0.7156018,0.2629125,0.4428795,0.5485777,0.1048429,0.2842286,0.8461868,0.6170207,0.1319011,0.3589395
S_1262610_e_012.set,0.4306661,0.1294319,0.04526909,0.05256842,0.1991434,0.1078873,0.06221087,0.04400944,0.0592228,0.3229609,0.1257651,0.0280665,0.08235601,0.04287411,0.03485618,0.08171968,0.04175055,0.0265782,0.5801601,0.2286113,0.08393677,0.1047457,0.0348712,0.04439063,0.07082289,0.0773029,0.3228164,0.2249967,0.1260858,0.04734592,0.06275982,0.06876127,0.06096034,0.06459067,0.08212303,0.5418686,0.1507198,0.03950535,0.06651545,0.1023255,0.1367498,0.1872477,0.1671552,0.2173388,0.2203972,0.02809484,0.08357378,0.1257143,0.04622799,0.05697955,0.1408255,0.4932082,0.04315087,0.104915,0.1676504,0.2472318,0.3926584,0.1334119,0.2416011,0.5349901,0.05444337,0.1245832,0.2502804,0.0585735,0.08763886,0.3276005,0.04263771,0.08093859,0.1629863,0.3165563,0.6157079,0.09226425,0.1004985,0.4384159,0.05836669,0.1107939,0.2874107,0.06599638,0.06624265,0.3454138,0.4562946,0.2551013,0.1336115,0.1120014,0.04070418,0.04948289,0.05960342,0.424056,0.2358859,0.1848859,0.1406896,0.1200181,0.1442686,0.6556429,0.3356998,0.2492241,0.03362303,0.05561557,0.104365,0.4207831,0.3968151,0.3403172,0.09784712,0.1340259,0.2270209,0.6066365,0.4464223,0.05455775,0.06949811,0.1787585,0.2549586,0.520094,0.5698167,0.08238624,0.1707302,0.3708101,0.7201285,0.06810928,0.09496712,0.3077449,0.132062,0.4973737,0.7473265,0.06316094,0.1805159,0.5269169,0.08126478,0.1067924,0.417827,0.09910041,0.3402433,0.65968,0.05857021,0.1286285,0.5728722,0.641797,0.2019039,0.1553407,0.1195697,0.08629389,0.5156521,0.4014047,0.1530897,0.4864081,0.1442097,0.2190306,0.1993408,0.4176994,0.5925112,0.3903945,0.10978,0.2672758,0.4343402,0.1511901,0.3173573,0.6760336,0.4160082,0.2247208,0.5242836,0.3367471,0.2167658,0.7350895,0.2919414,0.5104468,0.5854915,0.1359619,0.3526732,0.8005748,0.6034454,0.2036644,0.50007
S_1262610_e_013.set,0.4407195,0.1551068,0.06774823,0.04176034,0.3323093,0.2002577,0.1016814,0.07432894,0.07600653,0.4433566,0.183845,0.07516853,0.103955,0.07187293,0.08399498,0.04981292,0.05955326,0.07560277,0.6787623,0.2133055,0.04714535,0.1645453,0.08496632,0.05281897,0.04265601,0.03772519,0.3438607,0.3636361,0.1639988,0.08474918,0.06180532,0.05484214,0.0461426,0.05834574,0.05339352,0.5607704,0.1567229,0.07276602,0.08945279,0.1179112,0.1106191,0.1112426,0.1577907,0.3753964,0.3553931,0.06661446,0.0792276,0.09083167,0.04118401,0.05118495,0.09533383,0.4864701,0.05170916,0.1278018,0.1928328,0.2196317,0.3092527,0.07092603,0.214564,0.5466167,0.057039,0.09397653,0.1703647,0.05125681,0.04508171,0.1831662,0.04448767,0.1110548,0.188756,0.2841429,0.5691077,0.07498519,0.1189672,0.455182,0.05538158,0.1171981,0.2880985,0.06080335,0.06408706,0.3282183,0.5978248,0.3279704,0.1780666,0.1003925,0.07589646,0.04888085,0.04070327,0.5945528,0.3142048,0.1751146,0.170041,0.1201362,0.1069541,0.7983084,0.4619451,0.2817326,0.06110478,0.07584821,0.1154387,0.5604391,0.5530142,0.4178785,0.1258883,0.1478707,0.2637724,0.747071,0.5041115,0.05335814,0.0888765,0.1644639,0.3741992,0.6536645,0.6717812,0.08747219,0.1810247,0.4386455,0.7046363,0.07654529,0.09897785,0.2079256,0.1861471,0.4840924,0.7687591,0.0632378,0.148636,0.5546754,0.0919832,0.09778468,0.3220081,0.09456278,0.3359275,0.7222375,0.05184705,0.1088288,0.6685129,0.5936275,0.1512063,0.06721066,0.0818886,0.07992714,0.379829,0.2999973,0.1010661,0.459172,0.09044068,0.154587,0.1424448,0.2306418,0.3226282,0.2038067,0.08257258,0.1817356,0.2908107,0.08596023,0.1455185,0.4275355,0.624027,0.2837169,0.5410112,0.4168756,0.1981767,0.7259791,0.3444327,0.5230622,0.5479645,0.1289331,0.3085261,0.8501018,0.6544219,0.1360587,0.3449339
S_1262610_e_014.set,0.4575325,0.1809444,0.0595962,0.03694343,0.3008897,0.2386709,0.1430689,0.06948425,0.06327249,0.4476101,0.2387706,0.07358635,0.1248324,0.06223749,0.06158178,0.04821279,0.04931404,0.03631793,0.6886587,0.2717468,0.0510151,0.1769058,0.0812272,0.05631988,0.03130184,0.03031712,0.2583842,0.254013,0.1277766,0.09826984,0.03905326,0.0403208,0.04615851,0.04453586,0.02799724,0.5750678,0.099572,0.07851312,0.04414445,0.04723464,0.02752656,0.04422703,0.1240261,0.2117034,0.1952538,0.04626839,0.01796882,0.02699616,0.04105099,0.03371119,0.02309493,0.3571492,0.05029988,0.05856875,0.06931096,0.07504892,0.1605698,0.03413118,0.1118087,0.4011349,0.05056191,0.03971327,0.06166279,0.03495057,0.03032323,0.06426197,0.06543745,0.07766689,0.1208609,0.2016835,0.494263,0.03638512,0.05844985,0.3834182,0.06135552,0.09639987,0.2011733,0.04809316,0.04415245,0.192158,0.6140921,0.3696796,0.1785168,0.1380729,0.03601199,0.02492736,0.03292334,0.6259848,0.3223911,0.1899771,0.1470067,0.1045955,0.1090893,0.8014274,0.3897863,0.3132429,0.05587645,0.04028124,0.04291743,0.5683375,0.4966353,0.3604324,0.08017176,0.08661035,0.18799,0.6514685,0.5018605,0.04833268,0.05079753,0.06767323,0.3861917,0.5994573,0.5772425,0.06871628,0.109445,0.3200801,0.6555028,0.04463897,0.05986996,0.1378915,0.2285924,0.503888,0.7060933,0.06130471,0.1147045,0.4436972,0.05515955,0.0740079,0.2607351,0.1686936,0.3871376,0.7082477,0.0568751,0.09137728,0.550748,0.6833047,0.1233919,0.0494445,0.05997052,0.05285684,0.4270275,0.3099601,0.07351549,0.3401969,0.06729335,0.1235608,0.1117158,0.3302728,0.3807556,0.1634772,0.03805269,0.1077165,0.2061404,0.06501562,0.0992823,0.3228216,0.6002151,0.317598,0.4788404,0.3443946,0.227127,0.7389168,0.3224816,0.4830011,0.5711504,0.1478239,0.2992938,0.812633,0.6613055,0.1857433,0.3750789
S_1262610_e_015.set,0.4968244,0.2034851,0.08504643,0.05344934,0.2932924,0.1825261,0.09824222,0.05247523,0.0336213,0.4207587,0.1975679,0.06729398,0.1021164,0.05959274,0.04682346,0.05845102,0.0404616,0.04403593,0.7141834,0.3077686,0.09823542,0.1983869,0.05507303,0.02982116,0.03816987,0.05061763,0.3376513,0.3555569,0.1665058,0.08457133,0.04868472,0.04640387,0.05595575,0.05341323,0.06520104,0.6354545,0.2085758,0.1153583,0.03950527,0.05796689,0.08638997,0.1409171,0.1914127,0.3659295,0.3188352,0.07422449,0.06180371,0.08595863,0.07137623,0.05763726,0.09835677,0.4781925,0.05998126,0.06137914,0.1191555,0.168434,0.2884136,0.1184717,0.2792816,0.4970728,0.05667323,0.09034446,0.1600823,0.07682849,0.07175731,0.171592,0.06964408,0.09350733,0.168152,0.2574804,0.5495033,0.07062672,0.1445536,0.5205401,0.05201782,0.1141,0.289963,0.0584979,0.06762562,0.3411103,0.5819345,0.2977399,0.1578131,0.1032244,0.02839854,0.03935006,0.04593084,0.6392369,0.3027976,0.1598725,0.2111204,0.1302965,0.1107811,0.732382,0.3710872,0.2512948,0.03497169,0.03330176,0.05187307,0.5616306,0.5121353,0.3394445,0.1402788,0.1508084,0.206196,0.6819688,0.4893214,0.02502069,0.04368714,0.113902,0.3419542,0.6317311,0.6338049,0.09863989,0.1760433,0.4004688,0.6544062,0.02842286,0.05936094,0.1463955,0.1882276,0.487482,0.7323979,0.06587414,0.1491122,0.5015768,0.04001575,0.0842518,0.3320277,0.1071992,0.3559851,0.7406912,0.05077241,0.1067267,0.6598819,0.6316749,0.1565903,0.06702103,0.06371529,0.04463246,0.4117494,0.2984202,0.09260555,0.4662353,0.06756924,0.1024805,0.1147551,0.2722022,0.3558988,0.2146601,0.05085402,0.1106343,0.251738,0.08341528,0.1333236,0.4044537,0.5841995,0.2473576,0.5302576,0.3917405,0.1609009,0.6971397,0.3428871,0.5150169,0.5001202,0.1270063,0.2976683,0.834264,0.6303633,0.1424047,0.3329983
S_1262610_e_016.set,0.3699809,0.1537694,0.04458342,0.04660558,0.2786641,0.1798543,0.1297453,0.05664005,0.07799603,0.4544499,0.2085964,0.03841515,0.06537931,0.04908885,0.05275146,0.102726,0.06102203,0.03798256,0.6885794,0.2130475,0.05869557,0.1120151,0.03121266,0.02594073,0.03552026,0.03922784,0.302471,0.3187678,0.1020554,0.04190863,0.03141763,0.03097209,0.02934502,0.04116435,0.03290542,0.5174354,0.1235709,0.03592277,0.02041401,0.05727901,0.08312251,0.09332722,0.1754178,0.3317134,0.2389423,0.01589892,0.04086436,0.06910041,0.02858231,0.06342918,0.08087511,0.4116624,0.01583228,0.05539848,0.0997249,0.1677761,0.2573857,0.09573145,0.2512711,0.4676281,0.02616864,0.08090706,0.1524197,0.03720952,0.06870378,0.1735758,0.03270035,0.07785369,0.1349042,0.218404,0.52157,0.05734248,0.09725351,0.4106485,0.03857017,0.1075425,0.25401,0.04676292,0.05798358,0.2742839,0.5775923,0.3233553,0.1228624,0.09887664,0.04355848,0.02944236,0.02643445,0.5602387,0.2847834,0.157868,0.1389298,0.1144091,0.1019664,0.7644389,0.3017743,0.2664194,0.0399349,0.03155208,0.06864885,0.5131912,0.4485188,0.3183456,0.08939255,0.1143942,0.194014,0.6141385,0.4956771,0.03080931,0.04728498,0.1165668,0.3564047,0.5849133,0.5785816,0.09087944,0.1669973,0.3620899,0.6343979,0.0349467,0.07540102,0.1957077,0.1801397,0.4607898,0.7044927,0.07553405,0.1488372,0.481242,0.04797197,0.07217093,0.2797844,0.1489012,0.3839667,0.7235507,0.07695135,0.1403679,0.5993942,0.6818799,0.1515975,0.08407511,0.07580648,0.05594309,0.4688279,0.3401124,0.09931754,0.4410074,0.1083315,0.1462309,0.1342728,0.326456,0.4027276,0.2370439,0.06843261,0.16687,0.2928783,0.09841551,0.1763842,0.4561103,0.5997545,0.3173999,0.4941758,0.3968035,0.2478037,0.7336228,0.3183634,0.5203332,0.5695442,0.167738,0.3613024,0.8385109,0.6262361,0.1928961,0.4157267
S_1262610_e_017.set,0.5542093,0.2126458,0.1007547,0.03856559,0.1485393,0.09041306,0.06576954,0.02925183,0.03768395,0.4160637,0.1465773,0.04871419,0.07580644,0.04857717,0.02572233,0.06481739,0.03121646,0.0212598,0.6301046,0.2516219,0.02958705,0.1236098,0.0810293,0.07308915,0.04735284,0.03942974,0.3844134,0.3143521,0.08722754,0.07352155,0.04571239,0.03544405,0.05025918,0.04153191,0.03684926,0.5814715,0.1006163,0.0420391,0.06166223,0.08547608,0.07733341,0.0892492,0.1892132,0.3741874,0.2045982,0.0502381,0.06836125,0.05677363,0.0513107,0.06903373,0.06428541,0.3929473,0.03523571,0.0885332,0.1313083,0.1369664,0.2554514,0.08154514,0.2749594,0.4092622,0.04675897,0.07740917,0.1112282,0.05102155,0.07692154,0.1297553,0.0585077,0.103541,0.1618937,0.2433966,0.5694312,0.02527742,0.07237502,0.4078374,0.04182512,0.116121,0.3086195,0.02576206,0.05297995,0.3761433,0.6148359,0.3311624,0.1591077,0.1214813,0.05126234,0.04336201,0.04923565,0.5488793,0.2958933,0.1630674,0.115374,0.07023807,0.113697,0.7055346,0.3302281,0.2634533,0.03484741,0.03136172,0.06573325,0.5711216,0.4953186,0.3379243,0.08634818,0.07424133,0.2005952,0.5774629,0.462978,0.02792231,0.04346139,0.08760796,0.3547526,0.5322893,0.5802017,0.077264,0.08698408,0.3288334,0.5922437,0.01963814,0.05439496,0.09171282,0.2107617,0.4598499,0.6328476,0.03944213,0.09128042,0.4087933,0.02268406,0.05773265,0.2175117,0.1396446,0.359177,0.7025592,0.03951094,0.08510866,0.6350912,0.5584822,0.1088959,0.07667758,0.04934357,0.02651156,0.4082142,0.2404943,0.03344292,0.4030485,0.09422687,0.1237179,0.09459745,0.2819141,0.3688203,0.1653173,0.07173728,0.1255042,0.1917302,0.07264082,0.1697864,0.3461532,0.6077286,0.2981386,0.3903598,0.2833,0.214852,0.6548983,0.2773035,0.3382011,0.5158361,0.07623003,0.1708816,0.8106426,0.566555,0.08350145,0.2556659
S_1262610_e_018.set,0.4902248,0.2023371,0.0630317,0.04854156,0.3390517,0.2115309,0.1089284,0.04446441,0.03959052,0.4152631,0.2260457,0.07451235,0.09263539,0.04595796,0.05293487,0.04058716,0.0394652,0.04063287,0.6641155,0.2180349,0.03988078,0.1915496,0.08901211,0.04478873,0.04329191,0.02738963,0.4255287,0.3432436,0.1423794,0.06730252,0.03157609,0.04253638,0.03116436,0.03480744,0.03218292,0.5775491,0.1117807,0.08959179,0.04749721,0.043928,0.05285621,0.04871247,0.278074,0.4150538,0.3289185,0.04496329,0.02665308,0.03711236,0.04105696,0.05552524,0.04075455,0.4562575,0.05033659,0.04985302,0.07238661,0.100413,0.1841195,0.1167438,0.2613151,0.5666934,0.04470967,0.0486306,0.06601577,0.05538095,0.0709412,0.09212558,0.06954438,0.1053856,0.1474306,0.200569,0.5146788,0.07122818,0.09984492,0.4504184,0.07270002,0.1103096,0.2142747,0.07193576,0.08579813,0.2491978,0.6175203,0.3028752,0.1216252,0.1036342,0.06194323,0.03527331,0.04634009,0.6086501,0.3058561,0.172915,0.159343,0.1174405,0.1094481,0.7387923,0.2824457,0.2407041,0.07410774,0.04790884,0.04790602,0.5927064,0.5072359,0.3436545,0.1378667,0.1468552,0.2089942,0.6216792,0.4593464,0.04656368,0.04668333,0.05770913,0.3827522,0.6199203,0.6140628,0.1081792,0.1772011,0.3792386,0.5971184,0.04038731,0.07021816,0.1063553,0.1833258,0.4214091,0.6905486,0.09207748,0.1765214,0.4767099,0.05576518,0.08123203,0.2017682,0.145111,0.372874,0.6958867,0.09311585,0.1842947,0.6461565,0.7189704,0.2095952,0.06468903,0.05338227,0.04495679,0.4066044,0.2958468,0.07436802,0.4558491,0.06512882,0.0803048,0.08614471,0.3057971,0.3344188,0.1386216,0.0624773,0.07634689,0.1324282,0.1069978,0.1315551,0.2344216,0.6356134,0.3314361,0.5262493,0.3938971,0.2370286,0.7367433,0.3526033,0.5339013,0.5584484,0.1687945,0.3591917,0.8165878,0.6669505,0.206538,0.4453109
S_1262610_e_019.set,0.5013382,0.1966403,0.05159173,0.04410471,0.3023638,0.197915,0.09959867,0.05601372,0.04622041,0.3740227,0.1865672,0.05347245,0.09721562,0.06052505,0.0439321,0.03339963,0.03287717,0.03375183,0.7108378,0.2458444,0.06343868,0.2042866,0.07578973,0.04838096,0.04558756,0.05253727,0.3050123,0.2960758,0.134017,0.08917125,0.05381422,0.04244535,0.02852453,0.03874036,0.0453658,0.5726527,0.114107,0.1044175,0.04348582,0.05478489,0.06002747,0.07842772,0.1632777,0.3188432,0.291168,0.0707394,0.05208348,0.0503307,0.04791487,0.06072633,0.06208245,0.375895,0.03355072,0.04470475,0.07508965,0.1095703,0.1870264,0.06093258,0.2002601,0.5875984,0.03903361,0.044135,0.08173651,0.04679353,0.04982115,0.1032183,0.0463809,0.09889595,0.1604791,0.2547154,0.6170144,0.043782,0.07348116,0.4317788,0.05299714,0.1156108,0.2784754,0.05262614,0.06908932,0.3204588,0.5881698,0.2735764,0.1027431,0.07553843,0.05159793,0.03794684,0.06226161,0.6310359,0.3450972,0.1555748,0.2064188,0.151511,0.1226767,0.7401792,0.3716851,0.2470313,0.04507188,0.03192756,0.06482796,0.554664,0.5527851,0.3704551,0.1058464,0.1414332,0.2272034,0.7241324,0.4627503,0.04448577,0.03351844,0.09766273,0.3093925,0.622025,0.6313525,0.06871678,0.1260011,0.3602063,0.621245,0.04531549,0.04073588,0.1465157,0.1277067,0.4245815,0.6815181,0.0556253,0.09451108,0.4185476,0.05627475,0.06706048,0.2921687,0.1172705,0.3557266,0.7043532,0.07940484,0.1321681,0.6167707,0.6912806,0.105521,0.07314075,0.08008013,0.06216826,0.4216713,0.3409041,0.0820532,0.3246747,0.06612046,0.104045,0.08927587,0.278451,0.3655693,0.1649934,0.05901942,0.133031,0.2357123,0.06952397,0.1322066,0.3802032,0.6079618,0.2799051,0.5398994,0.426212,0.2479887,0.7185647,0.3202323,0.4672608,0.5486096,0.1515163,0.2865797,0.8131267,0.6907718,0.2132408,0.4131785
S_1262610_e_020.set,0.4928842,0.1893083,0.05217148,0.06686968,0.2830666,0.1909595,0.1114961,0.07722279,0.06760238,0.3641498,0.1764435,0.0678575,0.115215,0.05630923,0.05263228,0.05408298,0.04681702,0.04150138,0.6461958,0.1942309,0.05139874,0.1276425,0.05141075,0.02960561,0.0416863,0.05205802,0.3358591,0.2864026,0.136951,0.06461821,0.02769616,0.03307755,0.0560572,0.05344632,0.04689147,0.5392766,0.1118698,0.06696908,0.03435488,0.039536,0.05781736,0.07479742,0.1977315,0.3096034,0.3295727,0.04522075,0.03852861,0.05424542,0.07149091,0.08778197,0.09009521,0.4042303,0.06787999,0.0773458,0.09479628,0.1302294,0.2064804,0.08473455,0.1754207,0.636974,0.07480586,0.08717333,0.1266019,0.07774101,0.1094465,0.1753283,0.08390272,0.1141413,0.1503998,0.2035825,0.5706602,0.07326128,0.08498542,0.4728999,0.07639842,0.09718002,0.2500324,0.05865134,0.07536292,0.2990375,0.6109007,0.3669106,0.1960046,0.1094962,0.02910176,0.02869914,0.08786212,0.6115068,0.3470075,0.2102931,0.1518467,0.123911,0.1227067,0.7847782,0.4087369,0.2834814,0.04074786,0.03618797,0.1011527,0.579852,0.5076648,0.3912259,0.08732567,0.1124514,0.206257,0.6774582,0.4779111,0.0344769,0.06456162,0.1567259,0.4274171,0.6286659,0.6487008,0.09319488,0.1614102,0.3693049,0.5552808,0.02909509,0.06682139,0.1922467,0.2302466,0.4323096,0.6706732,0.05201503,0.1262703,0.419838,0.05398033,0.07801811,0.3308555,0.1346722,0.3095289,0.6965258,0.04258614,0.1107214,0.6125896,0.714761,0.110459,0.05773882,0.09254841,0.05878684,0.4916655,0.3751406,0.1013716,0.298522,0.07754526,0.1618224,0.1494452,0.3869681,0.4589894,0.2247929,0.1090869,0.1761696,0.3003412,0.1105743,0.1829173,0.4450715,0.6782423,0.3325949,0.4830042,0.3847867,0.2176776,0.6845626,0.3756005,0.5196938,0.482618,0.1530543,0.3421422,0.8278899,0.6884516,0.1705986,0.3977137
S_1262610_e_021.set,0.5793125,0.2436441,0.04662301,0.06343857,0.2370133,0.189214,0.129832,0.08121723,0.08652101,0.4938604,0.2815272,0.03933788,0.08922977,0.04513661,0.05832668,0.07182748,0.05284537,0.04613511,0.6440545,0.2040436,0.05791476,0.1834243,0.08483193,0.04378933,0.04163285,0.03629436,0.3951998,0.339211,0.1050846,0.103317,0.02863225,0.02252122,0.03430469,0.03907282,0.02611342,0.5707152,0.1347501,0.1077889,0.04780579,0.03991223,0.0705852,0.07804096,0.2106455,0.3087722,0.291969,0.07311203,0.03109088,0.04527091,0.05873951,0.05159683,0.05907381,0.4393205,0.0355766,0.03929124,0.08049978,0.1348072,0.2248794,0.08295777,0.1500281,0.616509,0.03671861,0.03246297,0.089603,0.06785558,0.03881422,0.1254695,0.05132986,0.1443835,0.2192437,0.2914576,0.6505297,0.08973809,0.07819524,0.512676,0.06015604,0.1631266,0.3478649,0.0698778,0.08400197,0.4102255,0.5840992,0.3370126,0.1646853,0.1115061,0.03989512,0.03114684,0.01860788,0.6244594,0.3162314,0.2022251,0.1482007,0.07819911,0.1332062,0.7976739,0.4149691,0.3115402,0.07611368,0.04924712,0.0494882,0.5428044,0.5233895,0.4007384,0.07608034,0.09477852,0.2510216,0.6595301,0.4878635,0.08054191,0.0502733,0.08870153,0.339222,0.5892218,0.5881616,0.07208487,0.114898,0.3484826,0.6138633,0.07305618,0.06294753,0.1330651,0.1988142,0.4577189,0.6767184,0.07547737,0.1217606,0.4226227,0.08709629,0.06924649,0.3222277,0.1520628,0.4003873,0.7425438,0.07728519,0.1464674,0.6827723,0.7005771,0.09372482,0.05373647,0.03543607,0.0453359,0.4356843,0.3213342,0.05095586,0.2307681,0.0443434,0.05650528,0.05857945,0.2809273,0.3396787,0.1047068,0.04884613,0.1069436,0.2167354,0.07928216,0.1238448,0.4105113,0.5803088,0.3260849,0.4558639,0.3155147,0.2631533,0.7355653,0.2454398,0.4067167,0.5487586,0.133158,0.2888874,0.8167425,0.6356686,0.1564415,0.368046
S_1262610_e_022.set,0.3996689,0.1208387,0.04987323,0.03298945,0.302711,0.1900785,0.09561318,0.0445614,0.03642177,0.3446762,0.1183207,0.0407375,0.1039407,0.06859038,0.05142327,0.05614923,0.04990114,0.02904292,0.595815,0.2122505,0.05900561,0.1174264,0.06158438,0.03450375,0.03596598,0.04911046,0.3735974,0.2643802,0.1185877,0.07750137,0.02218075,0.02674746,0.04867999,0.04332354,0.02672962,0.5441458,0.1318739,0.05984526,0.0955383,0.1328548,0.1437487,0.1686447,0.2226331,0.3221267,0.2723599,0.05888812,0.08540745,0.1136221,0.06399349,0.08793046,0.1385835,0.4039634,0.07138153,0.1276093,0.198366,0.2455126,0.3193735,0.09819191,0.2514052,0.5336279,0.05631485,0.12903,0.183365,0.04400944,0.08579184,0.2465306,0.05247917,0.1070866,0.1798006,0.3016381,0.6045126,0.03108781,0.07908169,0.4239677,0.03851156,0.1544799,0.2902076,0.02832769,0.06568537,0.4072591,0.4878644,0.229138,0.1407715,0.09547582,0.05293474,0.0393151,0.05717168,0.3780072,0.197085,0.1261664,0.1184265,0.1061098,0.0966992,0.5491086,0.348734,0.2430582,0.03195086,0.0451544,0.09904008,0.4332487,0.4595977,0.3170263,0.09543826,0.129201,0.2153463,0.6050808,0.4082355,0.03077279,0.06392429,0.1637219,0.1884413,0.5252817,0.5293449,0.05945961,0.1299375,0.3611322,0.6653823,0.02801051,0.07821527,0.2396718,0.1360492,0.5126259,0.7231361,0.05601595,0.1707464,0.5495115,0.03344543,0.08783471,0.3684793,0.08545339,0.3802026,0.6583396,0.03137985,0.1261879,0.6594279,0.6559364,0.1947371,0.08961654,0.05780848,0.03768326,0.4290041,0.2933735,0.07008049,0.477167,0.08119228,0.1184686,0.1120539,0.3387583,0.4593423,0.2116191,0.08311994,0.2144666,0.311977,0.1653502,0.2755533,0.5339681,0.4134175,0.1886525,0.4795342,0.2937134,0.173489,0.6974988,0.2273709,0.3954865,0.5332857,0.09673807,0.2823907,0.7715653,0.5737955,0.1561358,0.3838581
S_1262610_e_023.set,0.5018809,0.2079884,0.06597258,0.04865656,0.2936679,0.1943781,0.1086349,0.0551018,0.0546893,0.4226483,0.2318644,0.03904177,0.08602492,0.05487379,0.04886596,0.04898981,0.04263952,0.03212126,0.7145225,0.2326315,0.05058308,0.1937082,0.0911095,0.04388226,0.03099869,0.02699621,0.3580008,0.3528658,0.1109685,0.07858909,0.04811787,0.03262528,0.02918201,0.02862075,0.02882061,0.556648,0.1409067,0.09868162,0.04516607,0.03632879,0.04901134,0.07164152,0.18175,0.3287956,0.3004967,0.05739728,0.02843565,0.02977568,0.03734081,0.03307393,0.05011917,0.4373322,0.04324334,0.0438433,0.07257444,0.1179251,0.2277921,0.06833328,0.2130617,0.5902379,0.04632986,0.0458017,0.09929575,0.04842605,0.0470381,0.1740789,0.03561251,0.0784053,0.1520241,0.2462974,0.5876135,0.04463528,0.05221976,0.5153297,0.04031601,0.08905298,0.2653771,0.04570431,0.03788043,0.3600055,0.5993141,0.3113193,0.1162816,0.06824635,0.03742922,0.02585392,0.03998283,0.5902802,0.3221633,0.1590963,0.1829225,0.118605,0.09878249,0.7560038,0.3359039,0.2314794,0.05623562,0.0313534,0.04446211,0.5534759,0.5061115,0.3341278,0.1063462,0.1207682,0.1820115,0.6353127,0.4462911,0.04765155,0.035073,0.09474881,0.3614617,0.6003826,0.6022563,0.06179976,0.1285751,0.353775,0.6428884,0.03306366,0.0390621,0.1630908,0.1796895,0.4532984,0.7216974,0.04254683,0.1333681,0.4644123,0.0521994,0.04527514,0.3501788,0.1000508,0.2984182,0.692134,0.0331102,0.08538059,0.6362255,0.7085478,0.08319759,0.05794255,0.0548564,0.03298579,0.4217213,0.3099,0.05065338,0.285033,0.0501817,0.07636424,0.06267918,0.2622895,0.3153241,0.1314233,0.05139979,0.09542322,0.2371363,0.06248125,0.09971388,0.4660133,0.6325031,0.2793533,0.5463274,0.3771628,0.1829236,0.6831539,0.308181,0.436995,0.4650566,0.09517919,0.2496208,0.7873566,0.651178,0.1076834,0.2987604
S_1262610_e_024.set,0.4661305,0.1839035,0.07614038,0.0659861,0.2503296,0.1455922,0.1029389,0.07523011,0.06470647,0.2849695,0.1514338,0.03560054,0.09580251,0.07107665,0.06803348,0.04507855,0.03447294,0.03262782,0.5474036,0.2176611,0.07584808,0.119422,0.04655914,0.04890261,0.05273949,0.05742107,0.3603278,0.3310451,0.1224503,0.05774303,0.04730552,0.05171426,0.02814174,0.03635532,0.04368841,0.4569427,0.144231,0.03575415,0.03995487,0.08018186,0.08931819,0.1188161,0.1673546,0.2951054,0.2697026,0.03689823,0.05861802,0.08983073,0.03229009,0.05801594,0.1098187,0.4400879,0.03290268,0.06260263,0.1069948,0.1232468,0.2672379,0.07624816,0.1857635,0.5646093,0.03994977,0.0910001,0.170841,0.04582828,0.06949427,0.2120048,0.03899258,0.09913349,0.1651166,0.2156826,0.626895,0.05430841,0.05920477,0.3689763,0.02789786,0.1154909,0.3101516,0.02398922,0.05216153,0.320223,0.5686854,0.3079135,0.1395901,0.08950977,0.02908782,0.02900867,0.03753762,0.5813757,0.2848263,0.1445648,0.173805,0.1108576,0.09326215,0.774559,0.3668212,0.2398161,0.04187387,0.03757977,0.0580724,0.5580301,0.5226345,0.3334819,0.1253715,0.1359211,0.1849457,0.5962514,0.3985849,0.04147908,0.05271258,0.1084342,0.3713765,0.6069699,0.5500408,0.08831463,0.1557358,0.3115545,0.4941726,0.03575322,0.03593047,0.1146772,0.1238051,0.3638658,0.5494373,0.0333057,0.08909111,0.2989408,0.03445822,0.04363739,0.3076656,0.08349298,0.2971919,0.6977701,0.02826195,0.1059986,0.6021994,0.6803073,0.136862,0.0911156,0.1026592,0.04412586,0.4601177,0.3219822,0.06118732,0.3553015,0.08268936,0.1583641,0.1016873,0.3089121,0.3818573,0.1767295,0.05833269,0.1721769,0.3198284,0.1025507,0.1907064,0.5098057,0.5700225,0.2145688,0.5105023,0.3661595,0.1588403,0.6688834,0.3327059,0.5146149,0.4785635,0.1157987,0.3083654,0.8029653,0.6438471,0.1375638,0.3759597
S_1262610_e_025.set,0.5919541,0.2834184,0.08081774,0.02291093,0.3442584,0.2111498,0.1238618,0.0489044,0.03213011,0.4483675,0.2421908,0.03183713,0.09111096,0.06119008,0.04961687,0.06076386,0.05448596,0.02455535,0.7071503,0.1778809,0.01843738,0.2549081,0.1474729,0.09482475,0.0438337,0.02178858,0.371135,0.2958709,0.05565308,0.09620789,0.0510787,0.03251461,0.03539517,0.05355791,0.02191514,0.4700721,0.05969846,0.1078101,0.05708078,0.04273515,0.037177,0.0525391,0.2074222,0.2614859,0.1966873,0.04958385,0.02252076,0.02700561,0.02665232,0.05174487,0.03254677,0.3505603,0.02935342,0.02489658,0.03916739,0.0607122,0.1647364,0.07561323,0.1651463,0.5373383,0.02441072,0.03414234,0.07582195,0.03133276,0.05446989,0.124603,0.02747496,0.07801122,0.1513884,0.2172643,0.5882753,0.04188133,0.08355711,0.4597368,0.04651801,0.1159091,0.2978779,0.05024824,0.04926453,0.3497755,0.6190518,0.3099951,0.1126887,0.06417572,0.04857938,0.05450557,0.02437701,0.6185263,0.2919891,0.1381033,0.1851086,0.08058536,0.08776609,0.7431967,0.2957675,0.2180217,0.06723632,0.07619072,0.05240671,0.5382084,0.4632798,0.32464,0.1127721,0.08190458,0.1840279,0.620491,0.424013,0.07231074,0.09152145,0.0781882,0.3361542,0.5734375,0.584152,0.1070038,0.1239671,0.3253224,0.5784713,0.05597127,0.0888973,0.1143939,0.1297328,0.3768094,0.6341619,0.0801513,0.11684,0.3621797,0.05673524,0.09360985,0.268791,0.1041252,0.2946688,0.6753711,0.08815024,0.09597595,0.5708765,0.7203863,0.1173816,0.08805133,0.1096828,0.08067676,0.4489822,0.3612454,0.1071472,0.3266014,0.09109034,0.1361306,0.1420505,0.3284546,0.4086824,0.2144801,0.05962991,0.1236209,0.2520072,0.08509658,0.1570694,0.4637353,0.5992709,0.2765092,0.5844964,0.3283165,0.2288159,0.7069088,0.4179197,0.4619566,0.5271207,0.2007602,0.2987559,0.7906393,0.6624754,0.2268021,0.3843476
S_1262610_e_026.set,0.4705431,0.1743045,0.06303349,0.02596122,0.183569,0.08202948,0.07294041,0.03361766,0.02877451,0.3274316,0.1670346,0.06628411,0.04051627,0.04674847,0.03728581,0.0598812,0.07155907,0.03536164,0.6571385,0.2579603,0.05783616,0.09496878,0.04072358,0.04271312,0.02637091,0.04165145,0.337401,0.389287,0.1846629,0.04260343,0.03864714,0.034996,0.03603256,0.04933794,0.04655158,0.5395285,0.1203541,0.04408492,0.04521274,0.07064138,0.06650779,0.09548612,0.1432835,0.3169174,0.3275956,0.04362394,0.0426083,0.0567582,0.03302024,0.04400811,0.07740455,0.4439057,0.03810847,0.07944776,0.1120875,0.1296895,0.2663136,0.07670424,0.2004574,0.6397315,0.04543887,0.05926375,0.1238873,0.03301829,0.05351472,0.1860919,0.05530397,0.1013671,0.1277234,0.1784328,0.5759118,0.04653654,0.08545431,0.4463033,0.04948049,0.09678552,0.2442611,0.03120307,0.06266913,0.3459204,0.5915513,0.3389777,0.1335882,0.118506,0.02745187,0.03303469,0.0586652,0.645031,0.3820761,0.2154216,0.2599088,0.2071586,0.1573287,0.7777787,0.3023256,0.2626712,0.03715353,0.04776947,0.1124561,0.5975909,0.5863488,0.3766548,0.1891155,0.2185586,0.2586416,0.6053013,0.4366141,0.04579239,0.0550136,0.1348833,0.3630894,0.6645574,0.6031522,0.120473,0.2099175,0.3810501,0.5385751,0.03311897,0.05046906,0.1512289,0.1646251,0.4445349,0.6571776,0.08084372,0.1527525,0.4222477,0.04123197,0.08283242,0.334465,0.1199103,0.3545265,0.7221607,0.04853409,0.1318656,0.701609,0.6693574,0.1763184,0.1070072,0.08737633,0.04884605,0.4382154,0.3469418,0.07984173,0.3842587,0.08471552,0.1116353,0.09692246,0.2643808,0.3363138,0.1698921,0.08170111,0.1379787,0.260906,0.0968722,0.1675531,0.4546258,0.6142362,0.2848603,0.6002402,0.4409431,0.2139787,0.700975,0.3448901,0.5240508,0.5099318,0.1464011,0.3197444,0.8206078,0.6285895,0.1456162,0.3549236
S_1262610_e_027.set,0.530453,0.1611293,0.03332164,0.03933648,0.313471,0.2431533,0.1356682,0.07014636,0.07415347,0.5090796,0.2555705,0.06283985,0.1035641,0.07625327,0.07588029,0.07187377,0.04002404,0.04714018,0.6228618,0.1203725,0.02672308,0.2292631,0.1244993,0.06780296,0.0566601,0.04728378,0.3840069,0.3653775,0.08206756,0.1196289,0.06351355,0.05720393,0.04691016,0.03693084,0.02612465,0.4695566,0.07844391,0.118411,0.06220285,0.04636823,0.04931342,0.05937887,0.1379943,0.2848438,0.2517989,0.08094912,0.04598544,0.04953834,0.04643994,0.03980785,0.04762391,0.3815851,0.04127005,0.03795869,0.05578501,0.07813063,0.2025734,0.03427117,0.09792454,0.515288,0.02987472,0.02643475,0.06899844,0.03600882,0.02905907,0.1092462,0.03027978,0.06431508,0.140013,0.2376129,0.6172098,0.03631862,0.08629857,0.4896233,0.04202686,0.09386216,0.2806656,0.03532737,0.03945888,0.3619554,0.6317965,0.3328296,0.1289216,0.09988045,0.08071493,0.0623993,0.03873953,0.6244661,0.2998674,0.1866819,0.1464236,0.09750676,0.1133902,0.7458266,0.3206297,0.2442521,0.09435903,0.06120299,0.04409842,0.5750363,0.5128234,0.3597223,0.09418296,0.1051852,0.1989019,0.6515505,0.4361801,0.060174,0.04827356,0.07856631,0.3617715,0.6197321,0.5948509,0.07216229,0.1218492,0.3232635,0.6023924,0.04842692,0.06251265,0.1153037,0.163758,0.4338666,0.7031935,0.04660533,0.09468653,0.4236318,0.04868762,0.09688693,0.3099538,0.1449316,0.3292597,0.7159178,0.05047739,0.09483889,0.6514934,0.6551963,0.06711568,0.06682593,0.08151595,0.06438198,0.4461303,0.3142652,0.06921768,0.2662204,0.06393966,0.08738828,0.1008256,0.2603689,0.2953289,0.141113,0.04493124,0.08153482,0.1944059,0.05403157,0.1009965,0.3744256,0.5778314,0.2927664,0.4780369,0.3299938,0.2171834,0.6869588,0.3166088,0.4273846,0.472401,0.1256994,0.2516585,0.7961682,0.6643926,0.1421489,0.2982136
S_1262610_e_028.set,0.3876014,0.08894051,0.02502582,0.0270733,0.2437012,0.1767375,0.112382,0.05890249,0.03316796,0.2922025,0.07772429,0.03235801,0.1104289,0.06270485,0.04839046,0.05294132,0.03849363,0.03580308,0.5657532,0.1594324,0.05186205,0.1063237,0.04388129,0.03870974,0.03259591,0.03822182,0.3869663,0.2620575,0.09915026,0.04633135,0.04745305,0.03921302,0.06336304,0.07958172,0.05886608,0.4789418,0.124963,0.03540454,0.06115705,0.08931087,0.09523781,0.1232765,0.2286935,0.3562799,0.240575,0.0668124,0.09956232,0.102729,0.08915918,0.126844,0.1197358,0.5365261,0.04156967,0.0941597,0.1642819,0.2107559,0.3755578,0.1083911,0.2699183,0.5375951,0.05374538,0.1324629,0.2069367,0.06054109,0.1154872,0.2636254,0.03720962,0.06638047,0.1714123,0.2823687,0.5975944,0.05396068,0.112296,0.4683199,0.05229642,0.136137,0.283802,0.03674199,0.07692058,0.3426097,0.4252833,0.2265077,0.1201899,0.07599847,0.05256737,0.04774532,0.04265949,0.3924506,0.1821988,0.1306665,0.1306706,0.1035704,0.08520631,0.6205941,0.357264,0.2095561,0.03635288,0.05464858,0.07738249,0.4292647,0.3853957,0.3035174,0.09446281,0.1217289,0.1620822,0.7018423,0.4693867,0.02722819,0.06689568,0.1396274,0.2470957,0.51226,0.5826518,0.08132475,0.159957,0.3341001,0.6872999,0.02212823,0.07389647,0.210006,0.1594737,0.4816127,0.7227423,0.05912865,0.1501314,0.4530616,0.03728219,0.1124288,0.3713897,0.1160347,0.3562769,0.6550488,0.05528133,0.1395788,0.5748255,0.6159619,0.1876778,0.1136342,0.0885169,0.05305161,0.4471738,0.3648165,0.116934,0.5066194,0.1478577,0.2043203,0.1946315,0.3828326,0.5751127,0.331267,0.1055495,0.2355788,0.3584439,0.1470939,0.3230427,0.5944583,0.435649,0.2481807,0.4051785,0.3088074,0.1901968,0.735838,0.2680867,0.4892345,0.5382562,0.1278946,0.3691387,0.7753127,0.5613487,0.1716301,0.4893257
S_1262610_e_029.set,0.3086035,0.08714166,0.06508767,0.06647209,0.2793569,0.1626213,0.1150414,0.1091045,0.1003977,0.3483812,0.1024893,0.07368477,0.0945575,0.06319416,0.07684363,0.03647478,0.02848904,0.06321305,0.6459433,0.2433311,0.05559677,0.1114838,0.07250908,0.06949615,0.0588498,0.04947034,0.4596401,0.4022551,0.1640309,0.0465128,0.05254031,0.04467006,0.06109531,0.09474228,0.07964684,0.5636466,0.1133239,0.06343881,0.1102277,0.1459649,0.1493891,0.1297508,0.2461913,0.4197763,0.2881898,0.0604983,0.1140088,0.1270974,0.07739458,0.1266829,0.1540472,0.4096104,0.0614046,0.1305756,0.1913283,0.2589333,0.3559512,0.1370756,0.3569494,0.5964465,0.06259724,0.1522299,0.2463369,0.06860472,0.126676,0.3184198,0.05345214,0.1168479,0.1840388,0.293153,0.6170216,0.06291066,0.1051874,0.4037482,0.05947353,0.1381808,0.3186365,0.05111043,0.08805422,0.385572,0.5399302,0.2523417,0.1508601,0.1296942,0.0345925,0.05689631,0.05140086,0.5475671,0.2512119,0.1853961,0.1333529,0.1171485,0.1269014,0.698288,0.4426475,0.2970368,0.03037366,0.08173092,0.09569512,0.5981147,0.5543107,0.4429014,0.1236041,0.2079233,0.2540397,0.7012471,0.4753981,0.04105002,0.0928138,0.143662,0.344071,0.5958943,0.6422557,0.07371751,0.1905575,0.351484,0.6885776,0.05655591,0.09633048,0.2040733,0.2111061,0.4977798,0.7680815,0.06819467,0.1770097,0.449882,0.05505202,0.09499609,0.3256531,0.1403222,0.3438046,0.675774,0.04570132,0.144809,0.5374624,0.6291285,0.2079265,0.06841069,0.08513294,0.05762981,0.3976209,0.3316051,0.1261507,0.493868,0.1257357,0.1832536,0.1627883,0.3136052,0.4939571,0.324171,0.1138544,0.2100075,0.3220913,0.1467874,0.2822425,0.6035147,0.5528294,0.3131081,0.4610879,0.385524,0.2627712,0.7070718,0.2778918,0.4883139,0.5222034,0.1404235,0.3679233,0.7550179,0.5837124,0.2077171,0.495506
S_1262610_e_030.set,0.3323307,0.08586711,0.04474271,0.04115247,0.3594999,0.2919722,0.2070504,0.1472735,0.1119807,0.2997563,0.05532932,0.02589899,0.157269,0.1541911,0.132832,0.03182887,0.04949007,0.08446994,0.6951805,0.2632684,0.02797027,0.1769734,0.08332931,0.0482546,0.03238181,0.02869562,0.3186245,0.2410561,0.07608465,0.07840849,0.05137519,0.03071273,0.03630549,0.0403186,0.03607412,0.5617204,0.07907505,0.070219,0.07946031,0.103122,0.1240525,0.1031975,0.1802244,0.3016521,0.1675794,0.02809826,0.0509736,0.06994268,0.03154605,0.06901857,0.06128968,0.4037805,0.06413977,0.1683991,0.2213664,0.3021665,0.3555362,0.08873143,0.2612413,0.4254213,0.04603372,0.09794898,0.2108438,0.03247033,0.07691784,0.1958001,0.07294411,0.1240696,0.1698117,0.3306283,0.5818275,0.02068779,0.07327043,0.3455865,0.05079769,0.1163237,0.2954074,0.03909769,0.07496472,0.3023964,0.5645236,0.3489922,0.2211865,0.1634203,0.06807818,0.04906991,0.08254704,0.5167809,0.3308188,0.2486751,0.1678159,0.1466214,0.1765487,0.7741773,0.5196154,0.3535062,0.06228548,0.06876848,0.1220013,0.53775,0.5606791,0.4575952,0.1302275,0.193927,0.2725919,0.7511945,0.501256,0.0471606,0.08223518,0.1705673,0.3600328,0.639755,0.6428782,0.0986387,0.2160733,0.3788314,0.7499472,0.04237525,0.1064301,0.2689412,0.2303634,0.562377,0.7922618,0.0811743,0.2252837,0.5467131,0.03792937,0.08883187,0.3424267,0.1526477,0.4011029,0.7321585,0.06066043,0.1749921,0.6068059,0.5871912,0.1511932,0.0774357,0.03657755,0.03687181,0.3941819,0.2676821,0.05947237,0.4772704,0.1229389,0.1279526,0.1459461,0.3536518,0.5086314,0.2475557,0.1149146,0.1845184,0.3482787,0.137277,0.2852223,0.5396429,0.5655724,0.3308556,0.4933942,0.423091,0.2864738,0.7453214,0.2781579,0.5227394,0.5439503,0.1520333,0.40117,0.8056481,0.6256477,0.2062907,0.4880648
S_1262610_e_031.set,0.4389645,0.1491561,0.04592733,0.03605803,0.3176666,0.1968604,0.101007,0.07437436,0.05309374,0.388722,0.1242441,0.05894559,0.1154998,0.08611748,0.06114752,0.05274866,0.05238881,0.05111857,0.642273,0.2116536,0.0570066,0.1620495,0.07930629,0.05044057,0.05778046,0.06745242,0.3810119,0.2740379,0.1049202,0.07229034,0.0424435,0.04515512,0.03783244,0.05538894,0.05483751,0.5099939,0.09272348,0.08389834,0.06754557,0.08997101,0.1443055,0.1574142,0.1840726,0.3087972,0.228521,0.05504045,0.05933262,0.09815692,0.03691008,0.06441252,0.1212716,0.3173446,0.04766498,0.1021272,0.2001175,0.2973579,0.3888142,0.0942277,0.2624299,0.5184391,0.03969866,0.09032454,0.2207728,0.03409599,0.09570055,0.2491584,0.03732615,0.09406251,0.1636633,0.2547026,0.4292468,0.05895361,0.0983991,0.3225729,0.04803944,0.08879298,0.2424935,0.05806217,0.0834683,0.2555273,0.4707175,0.2144464,0.1454788,0.08956198,0.05080744,0.05280158,0.05310262,0.5060079,0.2069017,0.1412902,0.1615779,0.09317449,0.09763402,0.6585295,0.3924631,0.2256812,0.0534325,0.05503871,0.1042758,0.50279,0.4163913,0.319057,0.1138339,0.1102048,0.1866929,0.6685167,0.4430933,0.059223,0.08237473,0.1887161,0.3030954,0.5084102,0.5561949,0.08113907,0.1362621,0.3323786,0.769358,0.05656184,0.122217,0.3017269,0.1877967,0.4695497,0.7832934,0.05648414,0.1524528,0.5540318,0.05959581,0.1265961,0.4215785,0.09699336,0.3039822,0.7093096,0.04300592,0.1408744,0.6218952,0.5952563,0.1739133,0.08241601,0.07158582,0.06927611,0.4164625,0.3190674,0.1150021,0.4843781,0.1192384,0.1849494,0.1977377,0.3696735,0.5508604,0.3347133,0.1086455,0.2144167,0.395438,0.1351943,0.3167587,0.5978176,0.5087512,0.2654332,0.5037202,0.3338996,0.2145717,0.6596345,0.2691928,0.45995,0.4821147,0.1462084,0.3443103,0.7951264,0.6116335,0.1923909,0.4674515
S_1262610_e_032.set,0.4094333,0.1688146,0.06078606,0.03188371,0.2607211,0.2295658,0.1652428,0.09631747,0.07129469,0.4437572,0.1867457,0.067778,0.09245525,0.09926496,0.06860413,0.06425011,0.04752259,0.03889539,0.6609471,0.2082949,0.04954212,0.1180842,0.04083646,0.03825432,0.04388746,0.04043164,0.3626371,0.3299772,0.1402602,0.03901332,0.03980365,0.04446325,0.05842255,0.06962393,0.05801598,0.5180775,0.1349541,0.06480326,0.03659366,0.06013381,0.07455705,0.1064583,0.1623896,0.3142871,0.2720016,0.02896168,0.04875278,0.07548033,0.02962332,0.05276801,0.1004292,0.4867287,0.03713119,0.05841462,0.1086902,0.134737,0.2597478,0.07141636,0.2564254,0.6056859,0.03191873,0.07500104,0.161227,0.01363447,0.04878733,0.229917,0.04296714,0.07085938,0.16861,0.2607957,0.582665,0.03733143,0.1008623,0.5038432,0.06396388,0.1354824,0.3364845,0.05393865,0.09853852,0.4197795,0.5810226,0.3168169,0.1566906,0.1052611,0.03306936,0.03945065,0.03621827,0.5571108,0.3156156,0.1607845,0.1750366,0.1378054,0.1089845,0.691689,0.3442537,0.2331512,0.05096577,0.03922438,0.04515766,0.5446043,0.5142919,0.3114899,0.1090939,0.1402047,0.1799603,0.6800976,0.4712063,0.06059802,0.04771247,0.09956212,0.3415105,0.5993537,0.5824438,0.07863978,0.178102,0.362939,0.6583437,0.05087008,0.04297584,0.1624971,0.195694,0.4700285,0.7044901,0.06061411,0.1537223,0.4830461,0.02584194,0.03968791,0.3165251,0.1412773,0.3727707,0.7552815,0.04647306,0.1525309,0.6737611,0.6360057,0.1542251,0.06176506,0.05363412,0.04033744,0.432849,0.2856101,0.07122083,0.4455605,0.08296694,0.1033448,0.09726771,0.3103379,0.4081318,0.1965873,0.05784402,0.1436101,0.2924885,0.103474,0.2032321,0.4938605,0.5707055,0.2677546,0.500501,0.3796593,0.2025286,0.6730887,0.2889922,0.5056046,0.5145833,0.1257767,0.3738562,0.8476189,0.5884013,0.1527212,0.4266838
S_1262610_e_033.set,0.5256499,0.2876287,0.09623299,0.02521093,0.1965036,0.1263218,0.06864874,0.03987714,0.03225229,0.4959781,0.2443237,0.05638998,0.0813406,0.04531459,0.02898102,0.08922753,0.04910918,0.01831651,0.766086,0.3164639,0.07620516,0.09317364,0.03203603,0.02132827,0.03234501,0.05103945,0.4480114,0.4115965,0.1769456,0.04634812,0.02855076,0.03378429,0.07417434,0.08126248,0.05752703,0.5596906,0.1488668,0.05706276,0.02699692,0.04627472,0.07219255,0.09686055,0.2951703,0.4075228,0.2898155,0.03544843,0.03894104,0.06322765,0.05709086,0.07971203,0.09267254,0.4991201,0.05279847,0.05194891,0.0867013,0.1427267,0.2567862,0.189152,0.353772,0.5591351,0.0543478,0.08211233,0.1432613,0.07594802,0.1009819,0.2141606,0.0484061,0.06192795,0.1181319,0.2300335,0.5128164,0.05934166,0.1354474,0.5028396,0.06042738,0.1213075,0.2706808,0.05722793,0.08380643,0.3776654,0.6041949,0.3634909,0.2224924,0.1376989,0.05589341,0.04677474,0.05762691,0.5887417,0.3366567,0.2086621,0.1219552,0.1117397,0.1241431,0.7454735,0.4624917,0.2899921,0.04846107,0.03243769,0.07056282,0.5663756,0.5075541,0.3721184,0.07677963,0.1216905,0.2209549,0.7419797,0.510296,0.03480477,0.03691161,0.1320549,0.4089193,0.6103867,0.6063291,0.0707597,0.1460861,0.3867242,0.7438716,0.02662564,0.05086034,0.2007494,0.2875091,0.5635287,0.7643002,0.08147846,0.1873798,0.5316933,0.03722899,0.07993592,0.3589775,0.1993272,0.4380956,0.7617992,0.07677824,0.1895064,0.6925455,0.7086511,0.259296,0.06633256,0.06171116,0.04813308,0.4431962,0.3345478,0.09941921,0.55286,0.08909081,0.11269,0.119423,0.3761275,0.4460193,0.2335647,0.1078961,0.208407,0.3465708,0.1781804,0.2841191,0.5373515,0.6367611,0.3582769,0.4279623,0.3677253,0.2650581,0.7483124,0.3157139,0.4942667,0.5660805,0.1830857,0.3939189,0.8413107,0.649241,0.2069549,0.459084
S_1415754_e_001.set,0.5792259,0.3848015,0.2558297,0.1596555,0.1014177,0.06225955,0.03930496,0.04492515,0.07045139,0.4157466,0.2291619,0.143051,0.1414343,0.05864274,0.05448767,0.0517067,0.06820029,0.07997616,0.7456327,0.5087237,0.3069414,0.1199286,0.06788409,0.05696387,0.0559129,0.09918207,0.6067504,0.598654,0.3606012,0.1115721,0.03180444,0.06833322,0.02693031,0.08900897,0.1454044,0.8233913,0.6018319,0.09371208,0.04942382,0.08546586,0.1387491,0.209503,0.4029286,0.737348,0.6218626,0.0686707,0.08731849,0.1604933,0.04188444,0.161138,0.2872906,0.8787659,0.06829077,0.05541664,0.1333499,0.2474468,0.3297724,0.2553839,0.673432,0.7375194,0.05800388,0.1442534,0.2430071,0.04561011,0.1763897,0.3789768,0.05342532,0.05877324,0.1534158,0.3214967,0.4456141,0.1637666,0.5470605,0.7559622,0.05510965,0.201544,0.3281757,0.04832166,0.1986982,0.458998,0.5041093,0.2429219,0.1039034,0.05713554,0.2248467,0.1129524,0.06043962,0.3870012,0.113927,0.05925177,0.06768688,0.09423548,0.04988839,0.6309562,0.2589,0.1340747,0.1296335,0.05160167,0.03345831,0.6855129,0.2848682,0.1272992,0.03435848,0.03542266,0.04855344,0.6550121,0.3790597,0.06776868,0.05418842,0.09876747,0.3794368,0.4825657,0.354181,0.02763813,0.05923333,0.1495503,0.8168926,0.04114536,0.1249439,0.275371,0.1803789,0.5826693,0.7030506,0.03789271,0.1930864,0.407253,0.08249769,0.2382183,0.4581293,0.1052703,0.497663,0.7661976,0.05186899,0.2884557,0.6144716,0.5671388,0.3038433,0.1133027,0.04237481,0.08588687,0.1154747,0.2111537,0.1734168,0.8003848,0.0572723,0.1457576,0.2677638,0.1323477,0.4040782,0.4856586,0.03949096,0.2877201,0.4904021,0.1137611,0.4584654,0.7382879,0.3917278,0.1642856,0.1054271,0.06152948,0.08257525,0.7687567,0.1776292,0.4498824,0.5253431,0.1267792,0.5226742,0.7919475,0.4030755,0.1672007,0.6602625
S_1496272_e_001.set,0.5923587,0.2792339,0.09706844,0.03217296,0.287367,0.2789918,0.114205,0.03101499,0.02644105,0.6217884,0.2702573,0.1078224,0.0754263,0.04029385,0.03766219,0.1240783,0.08018659,0.05121725,0.6390485,0.1624479,0.05505342,0.2618739,0.1453464,0.06610006,0.02504267,0.02488188,0.5244197,0.2597945,0.1263665,0.08013038,0.03519781,0.0269908,0.0498302,0.04963592,0.03137761,0.4424871,0.1912877,0.1251773,0.0667906,0.04880963,0.05244978,0.06885021,0.3626574,0.3357731,0.2781352,0.05361146,0.05443488,0.05527283,0.0932047,0.1056171,0.08786056,0.6549298,0.08040973,0.0840243,0.08749408,0.1314497,0.1921849,0.1585409,0.3001693,0.5650287,0.065132,0.08481585,0.1274334,0.06161895,0.1196748,0.2054651,0.03146739,0.06996236,0.1074715,0.2416543,0.4393718,0.09261405,0.2544603,0.6204478,0.07894062,0.158984,0.2872424,0.07378186,0.1475492,0.3699016,0.5321479,0.2011699,0.0495852,0.04337152,0.134485,0.06197692,0.04933834,0.3709995,0.1308727,0.04711967,0.05471601,0.04333199,0.03334917,0.5408058,0.1552366,0.1099328,0.08833417,0.03181854,0.05412818,0.4409024,0.2583507,0.09872229,0.02993469,0.06234214,0.0533931,0.5669765,0.270283,0.04369259,0.04085191,0.07701774,0.2895973,0.4668575,0.3679944,0.05194724,0.1250209,0.1425514,0.6360106,0.04431047,0.08121472,0.1589564,0.1433235,0.4119449,0.6280438,0.07647933,0.1418846,0.2876136,0.05270361,0.1177702,0.2579977,0.1045142,0.2954397,0.5844679,0.07870414,0.1404221,0.4009105,0.7106193,0.323106,0.03437847,0.09959446,0.1049714,0.3838802,0.3145149,0.21188,0.6616862,0.07311013,0.2237856,0.222722,0.4381329,0.5553939,0.4824119,0.09460936,0.221224,0.2934363,0.206602,0.3591392,0.5628015,0.5617712,0.2383431,0.3579052,0.3132603,0.1742507,0.6973016,0.4066777,0.5930721,0.4763598,0.2178291,0.4009899,0.6498308,0.6968189,0.290952,0.5881069
S_1496272_e_002.set,0.1622405,0.04464785,0.02578247,0.03216882,0.2572159,0.1792671,0.08976483,0.06450076,0.06014771,0.456152,0.1291729,0.038435,0.1084301,0.06923566,0.04285639,0.09682135,0.04127098,0.02859298,0.06967142,0.04342919,0.03869129,0.03468581,0.04459189,0.04183588,0.04146578,0.0526799,0.06647397,0.06800719,0.06472804,0.03145228,0.05616907,0.0581693,0.05080193,0.0768755,0.06352814,0.3450646,0.1405533,0.02797585,0.02094254,0.02812477,0.04494749,0.07090911,0.07385884,0.1199417,0.1803854,0.02698852,0.03112308,0.04319467,0.05668087,0.03677053,0.06629206,0.5708003,0.01348845,0.02921291,0.06231521,0.1118421,0.1985131,0.04581382,0.1720483,0.4546197,0.03865463,0.05656426,0.1018572,0.03559525,0.05963246,0.2254277,0.02668351,0.02746833,0.05369296,0.1858311,0.4035004,0.01546629,0.1072271,0.4988019,0.04025605,0.08459258,0.1957395,0.03808317,0.1059713,0.4514882,0.3323182,0.1215273,0.08602233,0.07569069,0.0331532,0.03285917,0.0350651,0.4504674,0.2355608,0.1110749,0.1237822,0.1292929,0.06304593,0.3937572,0.1794885,0.08743919,0.03956582,0.03524968,0.04328865,0.4770147,0.2783744,0.1478356,0.05401726,0.09490533,0.06000885,0.4591155,0.1959586,0.03496789,0.03110253,0.05182369,0.3483529,0.3722835,0.2512137,0.04265517,0.1188063,0.09048086,0.6691489,0.02705077,0.05210274,0.1427784,0.2240102,0.4367959,0.6091875,0.05368616,0.2035768,0.3038267,0.0199359,0.06058181,0.2373233,0.1366318,0.2794196,0.5698053,0.05331593,0.1775308,0.5051873,0.5543938,0.1426802,0.02097971,0.02917418,0.02491867,0.3708403,0.1027599,0.03658216,0.560448,0.07473426,0.1323241,0.1309556,0.5046544,0.3913946,0.2668828,0.07982023,0.1597553,0.2674284,0.2070829,0.3580075,0.6283804,0.7292264,0.3386291,0.2980715,0.3710385,0.1432945,0.6895367,0.3084947,0.5934063,0.3234841,0.1626304,0.5108748,0.6057006,0.537351,0.1595884,0.476132
S_1496272_e_003.set,0.2596582,0.114454,0.05415894,0.02829421,0.1826644,0.1628207,0.05796956,0.03751289,0.04409467,0.5847327,0.197726,0.07839391,0.0759241,0.03571155,0.04354669,0.1636378,0.05630392,0.03950343,0.1080663,0.06628962,0.04915451,0.05173253,0.02859241,0.02308241,0.0323676,0.02944209,0.1707142,0.09138162,0.05432902,0.03458575,0.03730356,0.04023631,0.05066346,0.0515001,0.04815103,0.3892113,0.1329914,0.02920654,0.01321677,0.02142621,0.03346345,0.03945399,0.1847189,0.175802,0.1860898,0.0190196,0.01879595,0.02636508,0.05245606,0.03699958,0.06883088,0.5260633,0.04600728,0.04249949,0.03575305,0.1018141,0.1680885,0.08922414,0.2158516,0.4337759,0.03584393,0.05823844,0.09529085,0.03947942,0.08734721,0.1965215,0.0295927,0.03978829,0.05594571,0.2446306,0.4579968,0.04341566,0.1650574,0.473297,0.05849718,0.1582418,0.2636495,0.03807598,0.1438635,0.4280252,0.4386488,0.1001551,0.03264015,0.0309238,0.06032612,0.0399592,0.03133382,0.4122782,0.09455862,0.05335309,0.0947606,0.07184263,0.04028956,0.315279,0.06525308,0.04966296,0.07668781,0.04482869,0.03708168,0.4102343,0.1018651,0.04596697,0.04526875,0.0544092,0.03866191,0.3798853,0.1633627,0.0304551,0.02487047,0.03863221,0.2589891,0.2554728,0.1593622,0.02197698,0.04366728,0.04742648,0.6957346,0.03219355,0.05709106,0.1384939,0.1254423,0.4179971,0.5554949,0.04070444,0.1147443,0.2705258,0.03215835,0.1039968,0.2652681,0.1159382,0.3734623,0.6346618,0.05634445,0.1878835,0.5074133,0.5935723,0.2256741,0.0534073,0.06450552,0.05372464,0.4171587,0.2008568,0.1026191,0.6453651,0.07635098,0.1860905,0.1641336,0.5142254,0.5123389,0.3835098,0.06814943,0.2386431,0.2961823,0.2169478,0.437146,0.6333243,0.5357401,0.2053497,0.3265826,0.268956,0.1384967,0.7088621,0.3305334,0.5482442,0.485466,0.1670535,0.4273374,0.6761789,0.6181988,0.2341791,0.5999144
S_1496272_e_004.set,0.3965978,0.1537009,0.08166659,0.06676503,0.1965255,0.135749,0.0774722,0.07523669,0.05981325,0.5291576,0.2060652,0.08842175,0.08955303,0.06286517,0.05535206,0.08873155,0.0484352,0.05013051,0.3339765,0.1293106,0.04893758,0.1431645,0.09899852,0.05599391,0.04094264,0.0253488,0.2378275,0.1088358,0.06090603,0.07995687,0.05245348,0.03165754,0.03685474,0.03078992,0.02262526,0.4280795,0.1052269,0.0681987,0.0277867,0.03324098,0.03890263,0.03555076,0.1961761,0.2017938,0.1469389,0.03485287,0.05215862,0.04326484,0.04446145,0.05177849,0.05181995,0.4947737,0.06775461,0.02343704,0.06980519,0.1200899,0.1683331,0.1219244,0.2489248,0.4345313,0.04565975,0.08193091,0.11494,0.03398254,0.07585056,0.1877351,0.03780605,0.03008603,0.05158383,0.1964279,0.4247532,0.1122541,0.2497536,0.5773249,0.07138626,0.1494205,0.2712419,0.08096062,0.1536117,0.4787931,0.3254358,0.08505695,0.03832734,0.03295057,0.07443426,0.02887179,0.03752283,0.3090202,0.1039966,0.04104065,0.06817947,0.033163,0.03101899,0.2603468,0.1394197,0.1017439,0.06208351,0.04030467,0.03034514,0.3891,0.1747965,0.08845701,0.0629473,0.06459144,0.05891845,0.3840125,0.1459881,0.03978016,0.04368452,0.03850452,0.2534298,0.2812569,0.1383486,0.04711363,0.0577739,0.05391354,0.676939,0.06964219,0.08933335,0.1376731,0.1944092,0.411637,0.5645934,0.06313986,0.1017988,0.250656,0.05423857,0.1110467,0.2533879,0.1716722,0.351558,0.6496459,0.08363268,0.1559215,0.4946374,0.616531,0.2289652,0.06849408,0.09237996,0.08780645,0.3725789,0.1665819,0.104057,0.6646793,0.08992281,0.1936786,0.2153105,0.4538291,0.4746377,0.3866032,0.06288622,0.18263,0.2971592,0.1693248,0.357409,0.6292899,0.6466579,0.2523524,0.379765,0.2774684,0.1486275,0.6615397,0.3758518,0.5119157,0.375792,0.2035501,0.4002591,0.6134065,0.514123,0.1968485,0.4990552
S_1496272_e_005.set,0.2827005,0.1462013,0.05896087,0.0260567,0.1992229,0.1436636,0.08261005,0.05385446,0.03404363,0.5438807,0.1578199,0.0494556,0.08293214,0.05336874,0.05152425,0.1079841,0.03765927,0.04242196,0.1378604,0.05455534,0.03504326,0.07577592,0.08539315,0.0586672,0.0577304,0.03983451,0.1565031,0.08552273,0.05128326,0.06243186,0.06142389,0.04884161,0.03615732,0.04280345,0.04395887,0.4221487,0.1442836,0.07360716,0.06274955,0.05572201,0.03007425,0.05758929,0.1410277,0.1537994,0.1684915,0.03088626,0.02950789,0.03225143,0.04657855,0.04683143,0.06545133,0.5163064,0.05761421,0.04409469,0.02887784,0.05330043,0.1504954,0.07033109,0.1761713,0.3840571,0.03040064,0.04673636,0.09192836,0.03929112,0.0621086,0.1758026,0.02136768,0.02331013,0.04914246,0.1752257,0.4157057,0.03430933,0.1485145,0.4804448,0.05626054,0.1249848,0.2463435,0.06534551,0.1280824,0.4471905,0.3746866,0.1450935,0.08612648,0.05771663,0.04155247,0.01559088,0.02008353,0.4400324,0.1944716,0.1029366,0.09368238,0.07487244,0.05046979,0.5005648,0.1782739,0.06427392,0.04822027,0.03277531,0.0351427,0.4416936,0.2033686,0.1044985,0.06173872,0.06714227,0.04875467,0.4148164,0.1497949,0.04201424,0.04669009,0.05494998,0.3232558,0.2884583,0.2058012,0.07516161,0.1089496,0.101349,0.6446172,0.02827675,0.05104465,0.1266229,0.2234333,0.4395281,0.5896975,0.06560557,0.1765786,0.3022769,0.0209872,0.08715405,0.2513477,0.1091702,0.2673834,0.5529996,0.05046277,0.1563448,0.488532,0.5597593,0.1876289,0.02790667,0.04779587,0.04448271,0.3748965,0.1707507,0.07803951,0.5926897,0.08093528,0.1748621,0.1684373,0.4873511,0.4735697,0.3144007,0.09047656,0.2196582,0.3206623,0.25212,0.407519,0.6212198,0.7022726,0.3342195,0.3749611,0.3653826,0.1712967,0.7150294,0.4232599,0.6293006,0.4080896,0.2203343,0.4947439,0.6609789,0.6428193,0.243865,0.522783
S_1496272_e_006.set,0.5500444,0.2410539,0.08690716,0.03955643,0.2509183,0.2130853,0.09781323,0.06501667,0.04396734,0.6015927,0.219301,0.09002141,0.1004324,0.04743566,0.03329423,0.1219145,0.06158081,0.03858673,0.6738575,0.2304545,0.1076625,0.2460338,0.1403484,0.07061709,0.05936367,0.05815842,0.5926572,0.3103605,0.1695741,0.1117167,0.03844997,0.03537154,0.0559414,0.04703336,0.05752341,0.5798734,0.2905096,0.1367908,0.06792096,0.03404621,0.04564137,0.09808074,0.4293094,0.413473,0.3542213,0.06030447,0.04563381,0.06767762,0.05394492,0.08598076,0.1418623,0.6742879,0.06663184,0.04511629,0.06279771,0.1301158,0.2540372,0.2061739,0.3649078,0.5788187,0.04933061,0.1101584,0.1896503,0.05503902,0.1449857,0.2769064,0.05541101,0.07338554,0.09999235,0.2166291,0.48014,0.1087677,0.2824836,0.6247069,0.08324146,0.1933175,0.3461758,0.05922308,0.179069,0.4446457,0.5307798,0.1942449,0.08802652,0.06344951,0.1416474,0.06576811,0.06039831,0.4878085,0.2246962,0.1011369,0.1656407,0.1046497,0.05698181,0.5358618,0.2111816,0.1428203,0.1073278,0.03511674,0.04953728,0.4923802,0.3052824,0.1849921,0.093657,0.08879524,0.07204671,0.6186763,0.304279,0.04971588,0.03063935,0.06474504,0.3236798,0.4291088,0.3444354,0.09626032,0.1243406,0.1282973,0.668812,0.03987264,0.05840081,0.1404688,0.1816754,0.4183463,0.5976011,0.08106537,0.1474484,0.2570732,0.0461926,0.1283664,0.2928872,0.1249203,0.3126941,0.6174465,0.06043905,0.177409,0.4026281,0.6919602,0.3228943,0.05971432,0.07621691,0.07172988,0.3261599,0.2782301,0.1775477,0.6748176,0.1012739,0.2505955,0.2374176,0.4255586,0.5749736,0.5097054,0.102128,0.2849635,0.3776992,0.2040348,0.4206173,0.6840115,0.6298706,0.3080816,0.4392226,0.370012,0.176668,0.7206949,0.4717894,0.6384386,0.5212776,0.2421733,0.4488479,0.6622936,0.7268447,0.2937818,0.6248214
S_1496272_e_007.set,0.2996273,0.1545149,0.1111078,0.0592313,0.3639243,0.2336293,0.1702832,0.110318,0.06164023,0.5659464,0.2433974,0.07664693,0.1625067,0.1165572,0.07928581,0.09264959,0.05028064,0.03983571,0.2319914,0.07781222,0.0377859,0.2186013,0.1417621,0.0723343,0.07456208,0.05644232,0.166632,0.08802441,0.04311634,0.1149801,0.07996505,0.07017191,0.03071189,0.02936897,0.0316164,0.3435287,0.1070763,0.1070875,0.05397424,0.04868959,0.06169214,0.05821074,0.184857,0.2231258,0.1605624,0.06553891,0.06125113,0.05451984,0.05052928,0.06694477,0.05020238,0.5484737,0.06597359,0.0332946,0.05453097,0.1334423,0.2253746,0.1482046,0.3340549,0.551253,0.06131603,0.120476,0.1812307,0.09225229,0.1825788,0.2628002,0.05668698,0.07939159,0.09179874,0.2484232,0.5199144,0.05453677,0.1907631,0.5689318,0.1011565,0.2087739,0.3300998,0.09855093,0.2411301,0.459094,0.5064269,0.2408054,0.137836,0.07395651,0.1354321,0.06013209,0.0416659,0.5145872,0.228967,0.128172,0.1028322,0.07974088,0.07363684,0.3528661,0.1697984,0.1045895,0.1084045,0.04710151,0.03738518,0.424571,0.2619889,0.1558285,0.06272896,0.08945729,0.1002811,0.4328421,0.1908647,0.1100435,0.05306695,0.06119071,0.3382308,0.3787698,0.2597847,0.1214631,0.137492,0.1357579,0.6280087,0.08689652,0.08632517,0.1591026,0.309619,0.606087,0.6844488,0.1860397,0.2971857,0.3620165,0.04901475,0.09344251,0.2837979,0.1626577,0.3837568,0.6233441,0.1263836,0.2716722,0.49409,0.6109359,0.1706444,0.06542282,0.0715053,0.0526432,0.2552091,0.1389895,0.06014288,0.5636373,0.09019233,0.15493,0.1473183,0.4182797,0.4406858,0.3188455,0.1229842,0.2570667,0.3334366,0.2768393,0.4974481,0.6265057,0.6469202,0.3687443,0.3762578,0.3726588,0.2605633,0.7695116,0.4339424,0.6405755,0.5616872,0.2845682,0.5472628,0.7051176,0.6972096,0.3412547,0.6969752
S_1496272_e_008.set,0.5691461,0.2585205,0.08255465,0.04987342,0.2396693,0.2422178,0.1219037,0.05709099,0.04945643,0.6177268,0.2624576,0.1036715,0.08039828,0.04495778,0.03732798,0.1691567,0.0497845,0.06352406,0.6463929,0.2273286,0.09634036,0.2143507,0.128422,0.05368832,0.04072247,0.04682301,0.6304805,0.348757,0.1960195,0.06700616,0.04418403,0.0427315,0.06933002,0.05654538,0.07035721,0.570419,0.289667,0.1308037,0.07048293,0.02388927,0.04274639,0.1000483,0.4171868,0.4057753,0.4145818,0.05295952,0.06260168,0.07197644,0.06955434,0.07712155,0.138789,0.6827059,0.05428485,0.03012256,0.02794331,0.1154727,0.2683784,0.1698079,0.3080666,0.5946625,0.03666071,0.06707384,0.120893,0.04920546,0.06220435,0.1978725,0.0622665,0.03739622,0.05552578,0.2016169,0.4815475,0.1006408,0.2487667,0.605846,0.04204058,0.1113293,0.2270424,0.06428868,0.07395476,0.3293266,0.5428743,0.2590665,0.1329024,0.09614323,0.1046085,0.04270533,0.05284527,0.4129501,0.2213683,0.09933142,0.1266437,0.06596435,0.06710175,0.5665428,0.1865208,0.1049578,0.08934508,0.0365808,0.02781564,0.4078032,0.2588713,0.1199966,0.05592426,0.04887743,0.0559088,0.5519327,0.2443083,0.05222322,0.04103409,0.0499089,0.267165,0.3660917,0.2749998,0.06199083,0.03242607,0.09601333,0.6216459,0.03481665,0.07839125,0.1497918,0.1457863,0.3817095,0.5789191,0.08086618,0.04621125,0.2253798,0.0516529,0.1360483,0.2946894,0.1119547,0.2869296,0.5541189,0.09858821,0.06092921,0.3501927,0.701685,0.3041481,0.04578321,0.1031111,0.08670308,0.3803612,0.1597679,0.1694445,0.6354181,0.08427856,0.2668234,0.2384567,0.4240155,0.2535289,0.4306161,0.06222311,0.2236202,0.294139,0.1813771,0.180321,0.5239899,0.5751242,0.2211976,0.4205139,0.1677131,0.143458,0.6886009,0.4954569,0.2657039,0.4991421,0.2487149,0.1483787,0.6444458,0.3289179,0.3067057,0.2165546
S_1496272_e_009.set,0.5411394,0.2240174,0.1173895,0.05439662,0.4284121,0.2741237,0.1622524,0.0684062,0.0299435,0.5605878,0.2346541,0.1006896,0.129187,0.05436372,0.03328235,0.07597108,0.04879194,0.03193415,0.5939547,0.2535344,0.08019793,0.3133798,0.190807,0.1283454,0.04873084,0.03009292,0.4314686,0.2086155,0.1194052,0.1413102,0.07364728,0.04479293,0.03532515,0.03476962,0.04246195,0.5929627,0.1705826,0.1394609,0.1235927,0.08627764,0.03431132,0.04891,0.29843,0.2276488,0.2145448,0.07959131,0.04719782,0.04691405,0.05084625,0.05070436,0.07824836,0.5674106,0.09182443,0.09484528,0.08878861,0.05881659,0.1402101,0.195902,0.2689272,0.4902381,0.06396715,0.07164714,0.1233206,0.05277289,0.1043136,0.2428641,0.05117393,0.05709354,0.08088315,0.1309976,0.3390366,0.1021783,0.2239802,0.5700715,0.05287745,0.1363536,0.2439284,0.06454085,0.1512698,0.4708479,0.4885868,0.2271091,0.1035753,0.04215597,0.1823525,0.0767708,0.05980707,0.464029,0.1639788,0.07024731,0.06475089,0.05133713,0.04031292,0.587467,0.2410447,0.1124676,0.1578474,0.06348211,0.05792692,0.4799969,0.2373941,0.1299466,0.03144015,0.03975564,0.05757787,0.6483482,0.2938395,0.09414732,0.05072381,0.05488672,0.4117828,0.440657,0.3079872,0.03855023,0.06892974,0.1017554,0.6787638,0.03119397,0.05303726,0.1153662,0.2696022,0.4984122,0.6084213,0.06924107,0.1586583,0.2758949,0.03851561,0.1060273,0.2471951,0.1472258,0.3742724,0.6346987,0.0768462,0.196604,0.499438,0.7184167,0.3179432,0.05236158,0.07507795,0.08021064,0.3901628,0.272826,0.1572922,0.6715174,0.0783532,0.2063689,0.2475958,0.4917673,0.5327054,0.4293506,0.07720596,0.2134047,0.3519182,0.2114991,0.4043515,0.6623799,0.6768676,0.3226201,0.3486095,0.3068522,0.1591992,0.7498978,0.3802754,0.5580692,0.4210855,0.2258227,0.4925165,0.6722058,0.627915,0.2241115,0.522396
S_1496272_e_010.set,0.4731902,0.2018917,0.09133018,0.04881813,0.183306,0.1580873,0.05315605,0.0272604,0.02021351,0.5499461,0.2553356,0.08082867,0.02751071,0.02797848,0.01864428,0.1596647,0.0623205,0.03731615,0.4624294,0.1966298,0.08987499,0.1565892,0.05352879,0.03268224,0.03574061,0.04267845,0.3469277,0.2152728,0.1090792,0.04029721,0.03099849,0.02904744,0.04828336,0.04608626,0.06294455,0.5224493,0.22518,0.082279,0.03109437,0.03920529,0.05787094,0.09161176,0.2783091,0.2506799,0.2554548,0.02595598,0.0363801,0.05099283,0.04717509,0.05541479,0.1080096,0.5339395,0.0531441,0.04296196,0.06254306,0.112561,0.1970403,0.1338122,0.2063126,0.3798673,0.04509661,0.08039508,0.1213272,0.04674124,0.07278699,0.2307321,0.02398263,0.031347,0.1029888,0.203812,0.4159924,0.08789487,0.2098435,0.5430725,0.0737371,0.1598629,0.2534536,0.05215859,0.1416692,0.4470738,0.2919452,0.1104358,0.06044029,0.03494085,0.06502362,0.03757575,0.03182318,0.2805668,0.08281166,0.04364774,0.107527,0.06304169,0.03241257,0.4820249,0.162215,0.1007564,0.04483914,0.02452666,0.03550868,0.3981866,0.1529348,0.07953595,0.03346597,0.04620343,0.04957506,0.584144,0.3055166,0.03580951,0.05107951,0.07684252,0.3410389,0.3516606,0.2492949,0.04667783,0.07419739,0.1273388,0.7054311,0.04626799,0.1249089,0.1743259,0.2268632,0.4311554,0.5566403,0.06439866,0.1368896,0.3234051,0.06118296,0.2006005,0.3118174,0.1503709,0.3689009,0.626769,0.07143317,0.1903772,0.5393435,0.69741,0.2806398,0.05636074,0.1288243,0.09253491,0.4536037,0.2593063,0.1643952,0.5972479,0.1275557,0.3162204,0.3136689,0.5040159,0.544606,0.4715987,0.1117722,0.2685704,0.3667094,0.21693,0.3439035,0.6254803,0.6054817,0.2727182,0.3970848,0.2939181,0.1673703,0.7335308,0.4387797,0.6189909,0.4777466,0.2291901,0.5017152,0.7100231,0.5962238,0.2260742,0.5223936
S_1591509_e_001.set,0.2894692,0.1895597,0.1394093,0.09432103,0.07380762,0.05887726,0.0565189,0.05239222,0.05698796,0.2022646,0.1141803,0.09114047,0.0509828,0.04874399,0.05334847,0.02513744,0.04864626,0.05671328,0.7947178,0.5845476,0.4115845,0.06169601,0.121767,0.155059,0.192561,0.2352581,0.5372601,0.5929387,0.4547538,0.05431502,0.1812773,0.2184029,0.1222896,0.2929319,0.2939551,0.7895709,0.5618199,0.05218545,0.1406064,0.2048722,0.2900458,0.3421001,0.4418404,0.7536381,0.6594808,0.06472404,0.2763297,0.3414713,0.1089483,0.4050272,0.4407578,0.7445561,0.04996247,0.1876357,0.2723221,0.4108623,0.4642902,0.3657405,0.7409464,0.7715432,0.09044289,0.3709109,0.4686715,0.1166503,0.4969115,0.5929367,0.04696011,0.2527596,0.3335628,0.5210458,0.685753,0.2308917,0.5663861,0.7666501,0.1210312,0.4253503,0.5538002,0.09732705,0.4749923,0.6512793,0.2653715,0.1436076,0.08642574,0.05557123,0.123577,0.05008971,0.04010921,0.1179459,0.0691425,0.05803431,0.07288921,0.03842374,0.04420143,0.7445151,0.5035062,0.3484373,0.08401226,0.1998432,0.2680547,0.5522179,0.5591455,0.4278626,0.154209,0.3785863,0.3609044,0.7731625,0.4915134,0.09342922,0.306963,0.4046894,0.3710198,0.7405427,0.6883572,0.1180859,0.5135447,0.5812165,0.7390237,0.1425577,0.4355744,0.6001409,0.2764308,0.8204747,0.8961541,0.1178331,0.6144577,0.7989817,0.1404829,0.3969133,0.5788301,0.1611245,0.5366746,0.6814343,0.07147493,0.4604506,0.6717955,0.5574562,0.3470031,0.128209,0.2098124,0.200846,0.4032823,0.3996657,0.2810962,0.847748,0.1707476,0.522363,0.5531049,0.2562984,0.7445118,0.7009121,0.1697838,0.6069869,0.7191031,0.1747791,0.7509848,0.8621357,0.5018506,0.2919971,0.5533264,0.4268516,0.2529807,0.8875123,0.2830552,0.8422891,0.8184304,0.1695972,0.7783749,0.9381667,0.4201837,0.193545,0.8500268
S_1811807_e_001.set,0.5922943,0.3079628,0.1603793,0.07013677,0.1386924,0.02187941,0.03905957,0.104062,0.1123859,0.5124108,0.318269,0.1380306,0.03546502,0.04615363,0.1374445,0.2410675,0.1515492,0.106653,0.6740615,0.387242,0.2065559,0.05304495,0.0138554,0.04735662,0.1556261,0.199116,0.5458983,0.5188578,0.3166139,0.01728198,0.04766537,0.1390652,0.1476436,0.1791336,0.1895168,0.8126209,0.5425535,0.08715639,0.05226259,0.1416814,0.356227,0.4633161,0.3234341,0.6235942,0.5983404,0.05332996,0.1269237,0.2528099,0.1279764,0.2687041,0.3802037,0.8378922,0.09650551,0.07345584,0.1867013,0.4491155,0.6203696,0.1977645,0.5651165,0.742337,0.07610353,0.1682477,0.2985982,0.1125361,0.3041847,0.5019428,0.08956064,0.08418253,0.198113,0.4574461,0.6659743,0.1143394,0.4272545,0.7024583,0.08501608,0.1728883,0.2968331,0.09011743,0.2865143,0.526954,0.55516,0.3957925,0.3149937,0.2302889,0.07128672,0.08588236,0.08390753,0.5388891,0.4105027,0.2877084,0.2537798,0.1827807,0.1610962,0.6973196,0.3817826,0.2331808,0.01126318,0.04073206,0.06333873,0.6051316,0.5247915,0.2218628,0.0798835,0.1056936,0.1301818,0.7187829,0.4765537,0.02281019,0.09676416,0.1492433,0.4902593,0.6307713,0.3664001,0.0898679,0.1689602,0.2509367,0.8534206,0.07670347,0.2463267,0.3419899,0.299684,0.5049618,0.5692724,0.1267159,0.2734665,0.4479361,0.1025374,0.3299672,0.4840542,0.2001655,0.3677603,0.5417706,0.126113,0.3051739,0.5378231,0.651008,0.3314353,0.05499075,0.07716483,0.1456774,0.5078622,0.4402972,0.2819398,0.7909482,0.09212069,0.176926,0.2980791,0.3996941,0.6422885,0.6215241,0.1032777,0.2079916,0.3256501,0.2319299,0.5774733,0.767821,0.7870501,0.271827,0.3214709,0.2995954,0.2384008,0.4487862,0.2751207,0.4084293,0.4161212,0.2289677,0.3784244,0.4892318,0.6649055,0.349335,0.7845165
S_1825275_e_001.set,0.3619777,0.08698696,0.1663448,0.08204391,0.6535031,0.1487187,0.2455579,0.06654919,0.108086,0.2078945,0.1133917,0.3413269,0.2672668,0.5188257,0.07632594,0.1569987,0.1431385,0.1246838,0.2326586,0.6812968,0.2712833,0.7666788,0.1652989,0.646234,0.1826586,0.463342,0.8261681,0.3783351,0.1114258,0.03705082,0.3824791,0.2809074,0.6723426,0.4703373,0.1986137,0.3253627,0.2643762,0.123568,0.6418651,0.1734209,0.1629961,0.4427799,0.2771365,0.7335699,0.3584588,0.275858,0.07512166,0.6808939,0.3414248,0.5147803,0.6293095,0.4801156,0.4025131,0.1925198,0.7530547,0.2888696,0.7529288,0.786493,0.5074592,0.1339902,0.0392427,0.3005089,0.4737965,0.8504764,0.6289502,0.3354611,0.1540585,0.1317584,0.5611393,0.7172388,0.6965131,0.3092848,0.3246643,0.1965511,0.04075435,0.2451589,0.4159951,0.3497915,0.3533264,0.4671297,0.08577174,0.5213497,0.1081102,0.2559922,0.4886896,0.2237684,0.1015425,0.09135579,0.586567,0.1463086,0.3893178,0.2819187,0.09398805,0.07685603,0.06503882,0.250014,0.1873044,0.3770995,0.6082547,0.6034034,0.07058108,0.3703566,0.218026,0.2916453,0.5532936,0.4290821,0.584663,0.6017767,0.3133223,0.06420343,0.08329733,0.6267907,0.3026151,0.5780638,0.4046681,0.200403,0.3740743,0.2289437,0.20919,0.1411211,0.1169148,0.2749793,0.2261844,0.2402623,0.220263,0.2909307,0.5267423,0.588258,0.2019229,0.04051721,0.2083898,0.7112305,0.6151153,0.6604232,0.5631543,0.4394126,0.1312277,0.04558394,0.2613403,0.3524765,0.8393798,0.5470393,0.258054,0.1993834,0.1158715,0.131253,0.7768756,0.5226915,0.8490754,0.4875903,0.5158882,0.07921159,0.2669711,0.1355693,0.1693528,0.6476057,0.3333428,0.1267095,0.04655769,0.0685586,0.2314893,0.1062336,0.2428902,0.1610406,0.04058971,0.4360874,0.671132,0.7250968,0.660251,0.3122665,0.4031497
S_1825275_e_002.set,0.3931546,0.06796966,0.1773037,0.08162378,0.6402966,0.1402377,0.3027991,0.09776123,0.1226264,0.2270994,0.1016584,0.4274225,0.337377,0.5413109,0.08438654,0.1794376,0.1632483,0.185395,0.2789962,0.6750357,0.2666034,0.7794029,0.1616354,0.6346642,0.2331546,0.4410815,0.8008152,0.3983591,0.1752793,0.06177662,0.3987821,0.3050452,0.6620365,0.5166064,0.2428562,0.3725927,0.2677975,0.1480128,0.7087942,0.1880069,0.157489,0.4658718,0.3749242,0.7676334,0.3576479,0.2910213,0.04935048,0.688132,0.4251254,0.5263751,0.5897325,0.4456533,0.4174741,0.2230297,0.6588501,0.3471169,0.6856202,0.771798,0.4939512,0.1866401,0.04617654,0.245899,0.4617988,0.8141473,0.6455559,0.36846,0.149598,0.1692973,0.4913312,0.6832963,0.6957092,0.3133941,0.3037723,0.2394094,0.05982817,0.2071573,0.4434153,0.3395041,0.3316329,0.5008577,0.07347112,0.5910579,0.1392958,0.2530158,0.4888888,0.2475923,0.1641547,0.1171495,0.635503,0.1572951,0.4091132,0.3275521,0.1255297,0.08629227,0.09986293,0.2975451,0.2307876,0.419774,0.5906643,0.6240822,0.06069508,0.4235206,0.2472693,0.2977035,0.5298614,0.3962645,0.4991114,0.5007707,0.2877105,0.1046473,0.1000709,0.6777793,0.2714233,0.4719234,0.3859349,0.206404,0.3665524,0.2799055,0.2075094,0.196348,0.0824559,0.2320676,0.2257795,0.3035987,0.253664,0.3175785,0.5119871,0.5601543,0.2481453,0.08050931,0.1610933,0.7389511,0.5719861,0.6263242,0.5879357,0.4974338,0.1907717,0.05541809,0.2079204,0.3833047,0.874608,0.6373182,0.3106464,0.1920607,0.115841,0.09958191,0.7354843,0.5795107,0.8135486,0.4522407,0.6206618,0.1580507,0.3184066,0.1714286,0.1743701,0.6750115,0.3264819,0.1492324,0.05154458,0.06417026,0.2919315,0.07094546,0.1793267,0.1433655,0.06680755,0.4458538,0.5952659,0.7594239,0.7475244,0.3270675,0.3725756
S_1825275_e_003.set,0.1261198,0.08841591,0.03514481,0.1104741,0.2554992,0.06359503,0.07067128,0.08392634,0.08314094,0.06527913,0.0703882,0.2409359,0.1161157,0.1557982,0.1224364,0.04175827,0.04155954,0.1917093,0.08081704,0.352091,0.03396035,0.5161013,0.07227013,0.2461796,0.04079081,0.04342844,0.5650616,0.1157299,0.03045221,0.04676839,0.1336407,0.04514214,0.3968862,0.1773933,0.03207907,0.1304722,0.04943452,0.04252736,0.5723153,0.06603733,0.0432205,0.2247154,0.121728,0.7928151,0.3902056,0.2963457,0.1233456,0.5461798,0.1886998,0.4571281,0.4941662,0.06135298,0.158726,0.09162422,0.4053413,0.07164447,0.3186067,0.5180625,0.1756563,0.05914987,0.03375882,0.07973035,0.1297065,0.5825475,0.2443021,0.09833225,0.06161246,0.04728771,0.2344167,0.688908,0.4525315,0.06759514,0.05121123,0.1100751,0.05621333,0.06591212,0.1172284,0.07258334,0.03804065,0.1817926,0.03021466,0.162906,0.03733777,0.04254535,0.269845,0.06946987,0.08202451,0.05802954,0.2071095,0.06055051,0.178098,0.0920578,0.06918187,0.07097586,0.06501175,0.08624536,0.1169034,0.3869205,0.3671796,0.4554086,0.1454142,0.209667,0.1627026,0.2327979,0.2253104,0.3089347,0.1665325,0.1866897,0.09119379,0.03990495,0.1075886,0.4266798,0.05610205,0.162002,0.1187283,0.04613595,0.2277062,0.06996988,0.04501709,0.07090078,0.09630167,0.1722236,0.0795548,0.08596507,0.04714274,0.1253157,0.0722329,0.2964961,0.2339541,0.04561603,0.04060445,0.5031027,0.1157873,0.3069046,0.455994,0.166234,0.05725513,0.07164481,0.0544591,0.0542923,0.7918617,0.2739427,0.04131699,0.2798586,0.1981473,0.1311115,0.6171402,0.2607072,0.762537,0.4455663,0.3902686,0.1459379,0.4139501,0.06221713,0.1377709,0.5926219,0.2380925,0.1464166,0.08885831,0.1159986,0.176909,0.09982648,0.05825556,0.1162642,0.1029997,0.08789317,0.419598,0.8490165,0.3891226,0.06064988,0.2404977
S_1825275_e_004.set,0.3737009,0.05734792,0.1482024,0.06878474,0.6145941,0.1158628,0.1993425,0.09544855,0.05355194,0.2260845,0.07588612,0.4034899,0.199002,0.4028021,0.05399025,0.1509183,0.1418808,0.1839726,0.3172159,0.6723853,0.1963655,0.8215084,0.1658869,0.6629957,0.2299678,0.3993769,0.8465929,0.4766235,0.1253397,0.036577,0.4222131,0.3241363,0.6795104,0.5708709,0.1631146,0.4147738,0.2361995,0.1577792,0.795219,0.2315018,0.2349569,0.4389819,0.4259561,0.8016923,0.3938386,0.4002253,0.09230249,0.7027183,0.4794424,0.5821083,0.5740114,0.3216842,0.4352527,0.2291486,0.6608663,0.2840723,0.6540783,0.7912692,0.567521,0.1341048,0.04891572,0.2575388,0.4989155,0.831055,0.6670483,0.2763569,0.09803903,0.120776,0.4346121,0.6868616,0.6073327,0.2356439,0.2776555,0.2106445,0.06370258,0.1894871,0.3957563,0.2506343,0.2560597,0.4816732,0.0711426,0.5724213,0.1382626,0.2301334,0.5655885,0.2900668,0.1216084,0.05903456,0.5831228,0.1666643,0.4374557,0.3872208,0.07082702,0.09636905,0.1462307,0.2406085,0.2530222,0.5006638,0.5561937,0.6643566,0.08720843,0.4464014,0.2888479,0.3365141,0.4885528,0.3938792,0.516497,0.5700229,0.3626471,0.05265437,0.1219597,0.6922079,0.3367122,0.5094778,0.4182605,0.1630289,0.3137489,0.2971343,0.2842931,0.142105,0.1776853,0.2517746,0.254,0.3036577,0.2810652,0.3163179,0.4657763,0.5767754,0.1895847,0.0570633,0.1743751,0.746856,0.5312523,0.5810131,0.5117247,0.5734243,0.1399778,0.05320889,0.2571818,0.4126464,0.8758749,0.6750677,0.2277306,0.2174471,0.2065483,0.1475839,0.7778008,0.6496426,0.8580196,0.4575325,0.4686626,0.0754974,0.3279369,0.1360779,0.1575318,0.7224123,0.3505176,0.1743703,0.07388835,0.1041514,0.2329892,0.09652557,0.206228,0.1730626,0.01707254,0.4853235,0.6391961,0.7162534,0.7760544,0.2630005,0.3342918
S_1825275_e_005.set,0.2355006,0.04569402,0.09626319,0.06454659,0.4503718,0.06504227,0.1205313,0.1297539,0.04015726,0.1418389,0.05255476,0.2583823,0.09845258,0.2373327,0.03699937,0.1100022,0.06374389,0.08952562,0.2414858,0.5894361,0.0657315,0.7324632,0.1807844,0.4977425,0.06637269,0.2080201,0.7930266,0.2969743,0.05912526,0.04635716,0.2627167,0.1705809,0.6153648,0.386027,0.09587112,0.2896095,0.09963328,0.1273382,0.713116,0.1241557,0.07111219,0.3242548,0.3079606,0.7888356,0.3912688,0.3662963,0.08018083,0.6636288,0.3399214,0.5086041,0.6023254,0.1907677,0.2966165,0.2002423,0.5429209,0.09436408,0.5090611,0.6735701,0.3570029,0.1117668,0.06558983,0.1513604,0.3347476,0.726604,0.4594736,0.2248985,0.02331656,0.0482149,0.3775335,0.6559881,0.5672578,0.08007714,0.1104028,0.1611809,0.0448655,0.1527373,0.2334876,0.1117509,0.1245484,0.3391054,0.1027181,0.387657,0.04688637,0.08535167,0.4293319,0.1825917,0.05079561,0.04301908,0.456006,0.07858992,0.3365214,0.2300397,0.03394169,0.06210744,0.07604697,0.1661579,0.2378182,0.4534091,0.5208889,0.6383707,0.09504588,0.3392756,0.2587743,0.3225704,0.3966909,0.2849103,0.3317233,0.3515565,0.1547113,0.03167662,0.05786839,0.5800734,0.1602205,0.3152789,0.1946239,0.131978,0.201119,0.1123877,0.08699109,0.1398992,0.1228629,0.2228322,0.0956771,0.1446994,0.1125163,0.2001604,0.2540277,0.4128467,0.1721184,0.06760938,0.07986646,0.6371981,0.3320129,0.4393224,0.4884069,0.3701433,0.1001201,0.07633994,0.1196124,0.2242639,0.8380309,0.4738837,0.1401341,0.1973318,0.2179796,0.1037424,0.7174779,0.440392,0.7771303,0.4624771,0.4519287,0.06759425,0.3094164,0.1150226,0.1301993,0.6024693,0.2189767,0.1749283,0.1002747,0.1471644,0.2081636,0.04838247,0.1241923,0.1004933,0.02301789,0.2796183,0.5058138,0.7807304,0.6180702,0.167785,0.2808422
S_1825275_e_006.set,0.05292245,0.1021626,0.0362317,0.1519495,0.2189457,0.1156548,0.05859594,0.1397616,0.1127148,0.0357135,0.06236149,0.3675156,0.1170815,0.1498147,0.1113665,0.02347594,0.04710581,0.2035325,0.1340657,0.361023,0.02724282,0.6102657,0.06607512,0.3638101,0.02884868,0.09778994,0.5926405,0.1685699,0.0285594,0.02973974,0.1957774,0.09015339,0.3153849,0.1835451,0.06491493,0.09215952,0.0638757,0.08893816,0.647091,0.04555346,0.06013488,0.2769643,0.09850203,0.7694521,0.4737265,0.2564793,0.1068609,0.6872147,0.1393077,0.4729935,0.5969823,0.1130332,0.1294488,0.04074336,0.4775871,0.0803308,0.3196928,0.5373199,0.1366126,0.0383472,0.04097626,0.1302777,0.1187248,0.5404683,0.1782831,0.09099623,0.05096878,0.05810066,0.2156085,0.7531406,0.469393,0.0368981,0.05022106,0.1484218,0.1466696,0.07984735,0.131607,0.05221874,0.05537123,0.2236203,0.0549578,0.2809195,0.05146651,0.05690397,0.2559285,0.1010294,0.09401367,0.09196437,0.3592487,0.07002702,0.1192101,0.1063722,0.06840807,0.06260705,0.08481836,0.1248807,0.04882549,0.4228646,0.5166825,0.4902419,0.1856658,0.3448927,0.09106579,0.2331647,0.3503316,0.2409644,0.1659361,0.2851042,0.04074382,0.05264049,0.1941852,0.4757777,0.05102409,0.1557479,0.04411473,0.06470844,0.2441254,0.03513246,0.04802312,0.09791341,0.276928,0.1459148,0.08594592,0.05469732,0.05235819,0.1596509,0.123624,0.3151477,0.2801683,0.04922051,0.05661047,0.5048596,0.164163,0.3096454,0.4699279,0.1398743,0.02652554,0.04035296,0.1023762,0.07042043,0.6298704,0.1824191,0.03969916,0.3335298,0.1846828,0.08290451,0.7267643,0.1783922,0.8004215,0.4967182,0.3350573,0.1965042,0.4640294,0.07459876,0.1921449,0.6657828,0.4046258,0.1493885,0.06003157,0.1075564,0.1596502,0.06756739,0.05462758,0.06431626,0.07376792,0.1202682,0.5404337,0.8237463,0.2647168,0.08679076,0.3109807
S_1825275_e_007.set,0.08739332,0.0495129,0.02808523,0.08673216,0.1967803,0.08055715,0.05180752,0.1192717,0.06155433,0.03672217,0.05026569,0.2303293,0.08591677,0.1382341,0.08162115,0.0262343,0.04047624,0.1290849,0.09421905,0.3598137,0.109833,0.4445425,0.04231219,0.4285721,0.08863951,0.1464407,0.6293021,0.08925588,0.02981877,0.0990509,0.2003253,0.04621293,0.3284523,0.1489498,0.03277411,0.09942099,0.1250924,0.04013212,0.4863683,0.05078898,0.04958436,0.2685512,0.07611503,0.5883997,0.2871675,0.07637442,0.02617568,0.4357191,0.1202971,0.4390726,0.392557,0.2850428,0.1456205,0.09530864,0.6328117,0.1566146,0.4376839,0.5601915,0.1559721,0.06691538,0.05986146,0.1587631,0.1445882,0.5702797,0.2435701,0.09835467,0.06442802,0.06599972,0.3230353,0.6575259,0.6689023,0.1072523,0.1465929,0.1834523,0.05250864,0.1119933,0.3140893,0.1184944,0.1565679,0.3966807,0.03944914,0.2666779,0.05739157,0.06076863,0.3141436,0.06418636,0.08315399,0.109305,0.2284668,0.04292776,0.1836797,0.0949143,0.04678604,0.06932204,0.04822547,0.1389868,0.06524719,0.3718743,0.3352123,0.259365,0.09314451,0.2420798,0.09578865,0.2774627,0.2716841,0.2790191,0.3027245,0.4718433,0.07818468,0.05210939,0.1578047,0.4038599,0.08159515,0.3242036,0.1484199,0.05828155,0.3233759,0.08057305,0.06372837,0.1292211,0.149758,0.1806848,0.1642132,0.0622113,0.07961507,0.2400545,0.1838288,0.4149886,0.1910438,0.03555431,0.07149599,0.6130479,0.2383101,0.4694149,0.5332519,0.1213861,0.03377901,0.09370076,0.1711039,0.06080388,0.6637574,0.2071978,0.03691451,0.2110585,0.05688955,0.03585518,0.6987508,0.2156467,0.8197042,0.4432562,0.1456411,0.07072738,0.2963941,0.05495419,0.1539476,0.4930963,0.2515025,0.03818235,0.06402533,0.05692141,0.05638612,0.03610406,0.1198989,0.05987731,0.03763246,0.1252346,0.5736755,0.7823795,0.3072953,0.07282452,0.3325537
S_1825275_e_008.set,0.1805898,0.03976093,0.02589996,0.09755028,0.3780488,0.07317023,0.0903705,0.1002913,0.06622559,0.08123188,0.04237114,0.2597238,0.07991906,0.2436051,0.06881688,0.04342369,0.03944265,0.119183,0.08112995,0.3127394,0.02476546,0.6805279,0.06377521,0.4031162,0.03759328,0.05323278,0.6687423,0.09361964,0.04174494,0.05778321,0.167826,0.06698421,0.3723363,0.1146466,0.0490536,0.07598239,0.03822236,0.06869685,0.5717039,0.05077745,0.04831711,0.1893442,0.08491036,0.6946336,0.4058479,0.2288841,0.05177488,0.5883712,0.09506968,0.4234294,0.5467768,0.1961398,0.1189259,0.04876002,0.658532,0.1108375,0.3611683,0.5174016,0.1068581,0.04723532,0.04749636,0.1674531,0.1269899,0.5035707,0.1833937,0.1014456,0.02665268,0.05363242,0.2332732,0.6578245,0.540553,0.02372576,0.06193934,0.1195544,0.1063844,0.09171002,0.1791933,0.03690735,0.07651068,0.2409943,0.05802117,0.2381211,0.04794467,0.02555182,0.3281402,0.07403161,0.06142342,0.07436053,0.2280831,0.04813494,0.1743267,0.07371675,0.03978035,0.06859978,0.1344038,0.05918718,0.05070766,0.2749761,0.4013239,0.5245342,0.1302246,0.2118436,0.05313689,0.1845928,0.2423239,0.2279998,0.1872524,0.4179978,0.05596396,0.05647643,0.1347244,0.4273678,0.07289504,0.268132,0.07973567,0.06435286,0.2372644,0.03932986,0.05632795,0.06275635,0.2898443,0.186292,0.1052371,0.02715127,0.06561343,0.1441923,0.1098441,0.3060709,0.216557,0.04396708,0.04546718,0.5586974,0.1730223,0.3671711,0.4935938,0.1151246,0.04223476,0.04801866,0.1116264,0.08453707,0.7067555,0.1735561,0.05911685,0.2371733,0.1134869,0.04999612,0.6628971,0.1465277,0.7711304,0.443693,0.3308305,0.1529587,0.3915991,0.04377786,0.1619447,0.605523,0.3105529,0.08499148,0.04369967,0.08820611,0.09784935,0.03981595,0.08317702,0.05220599,0.04287013,0.1023181,0.5225128,0.8404793,0.2592997,0.07249554,0.3068087
S_1825275_e_009.set,0.09376398,0.07153799,0.01954942,0.1036107,0.263985,0.0893005,0.03645392,0.1141468,0.06508138,0.05972581,0.05343347,0.1919674,0.06711733,0.1384924,0.07833354,0.04142496,0.03411799,0.1268431,0.1209053,0.3386087,0.0579189,0.6600369,0.06713308,0.4196575,0.07698232,0.125415,0.7431471,0.1388592,0.04787599,0.04927532,0.2581531,0.09428392,0.4526236,0.1768334,0.06338789,0.05853432,0.07412535,0.08761393,0.5505686,0.05350458,0.07537985,0.1899594,0.1077015,0.6565603,0.3660902,0.2522657,0.06527866,0.5355664,0.0804692,0.3713517,0.5216566,0.1838212,0.1638152,0.03954018,0.6371361,0.1400056,0.3319993,0.4374164,0.06911191,0.05579272,0.03772277,0.2001667,0.07548945,0.4613734,0.1187505,0.07954489,0.05936631,0.05135277,0.3248675,0.6343001,0.6627555,0.03663173,0.087245,0.1671876,0.06164898,0.1195312,0.2055061,0.04505268,0.09313188,0.2987103,0.0496935,0.2737898,0.05497532,0.06996939,0.3890785,0.1055772,0.0687388,0.04484513,0.2986686,0.07635326,0.2519827,0.114609,0.06642582,0.05782626,0.05975337,0.07728742,0.07785361,0.3033916,0.4499897,0.4670525,0.1061522,0.2158706,0.06693026,0.1986812,0.3007973,0.313585,0.3249741,0.373736,0.0562976,0.03538647,0.08016264,0.4649979,0.06321062,0.2747811,0.08462337,0.06345297,0.3331633,0.06342225,0.06278805,0.1663482,0.06323414,0.2073187,0.1320727,0.05645665,0.05001097,0.2176344,0.1155198,0.2897063,0.2399963,0.04485092,0.09139161,0.5109738,0.1242152,0.3261088,0.4809021,0.140423,0.05423951,0.06083918,0.1787399,0.08458924,0.6908225,0.1991821,0.05463536,0.2579443,0.1797673,0.03074762,0.6863354,0.1205502,0.7730405,0.4788811,0.3835827,0.05796734,0.3792718,0.06296439,0.181828,0.6245998,0.172319,0.1417332,0.05149931,0.1075139,0.1873771,0.03744922,0.1229403,0.02247285,0.0462526,0.06728945,0.5112432,0.80187,0.2291201,0.05824857,0.3347167
S_1825275_e_010.set,0.116597,0.09485556,0.05133615,0.09789642,0.2880873,0.1841029,0.07216971,0.1152715,0.06582055,0.06758876,0.0361664,0.2755727,0.1181401,0.1761848,0.06981348,0.03647768,0.01975732,0.1441943,0.09699252,0.4536936,0.1134596,0.6554428,0.09258921,0.4835346,0.08969785,0.1786062,0.6931707,0.1337331,0.0548091,0.09598295,0.2464505,0.07354628,0.4209934,0.1783933,0.05622461,0.09384252,0.09272765,0.07773263,0.5641485,0.04835989,0.03808179,0.2606401,0.07716782,0.7398018,0.3974844,0.2765454,0.06988464,0.6073129,0.09074733,0.4685568,0.569132,0.30711,0.1994032,0.07384165,0.7380701,0.1866831,0.4362508,0.6266383,0.1356307,0.06896746,0.07481744,0.2351936,0.1262841,0.6367365,0.1880482,0.1221008,0.05036253,0.0745077,0.3827005,0.6226753,0.6702617,0.1248002,0.10674,0.1545782,0.06245849,0.1516854,0.2364695,0.1411725,0.1144505,0.3487422,0.09200683,0.2863889,0.05702139,0.07881214,0.32238,0.09170791,0.07361419,0.1148973,0.2743099,0.04333041,0.1905618,0.1243835,0.03334348,0.06271131,0.05250691,0.136531,0.06367041,0.3122635,0.5125722,0.5359172,0.1506539,0.2683414,0.06222612,0.2054547,0.3563617,0.3246722,0.328407,0.5141295,0.06905063,0.03996279,0.1323682,0.4975697,0.0614136,0.4373786,0.1066513,0.06769402,0.2652818,0.09923899,0.03582121,0.07398336,0.1429184,0.2170769,0.0916981,0.1084241,0.03504103,0.1521031,0.2074146,0.3536509,0.2288781,0.06635241,0.08621335,0.5456058,0.2553722,0.3970729,0.5420722,0.1163925,0.0482888,0.07109118,0.2060262,0.06505889,0.7471275,0.1811731,0.05611119,0.2487439,0.1493907,0.03672023,0.7254073,0.1578262,0.8069876,0.5025308,0.4334207,0.1260879,0.3570978,0.05815821,0.1854683,0.6127437,0.319906,0.1200994,0.0611569,0.1081511,0.1662384,0.03123536,0.1654076,0.04589195,0.03446406,0.100918,0.5921286,0.8003335,0.2599413,0.08140257,0.3816398
S_1825275_e_011.set,0.05654013,0.1012392,0.09285922,0.1508889,0.1083647,0.1950132,0.0641609,0.1767018,0.1142644,0.05426698,0.06489214,0.3798974,0.06575429,0.1044925,0.0851799,0.06277751,0.048765,0.1792254,0.203524,0.5569769,0.2753607,0.6240479,0.06582069,0.6576834,0.308637,0.2967948,0.7890792,0.2436171,0.06653247,0.3622322,0.4093545,0.167452,0.5859489,0.2406797,0.1913468,0.1667021,0.2258609,0.107188,0.5244742,0.1872467,0.2221484,0.3114401,0.1820693,0.641559,0.3819715,0.08568024,0.1053948,0.5677952,0.210032,0.3332049,0.583779,0.4238185,0.2572797,0.0738074,0.7191681,0.3864685,0.524347,0.659646,0.2238348,0.1161103,0.2985995,0.3318915,0.2438434,0.623669,0.2719511,0.2660961,0.1374727,0.09414475,0.5893563,0.7853367,0.7240776,0.2589377,0.2185071,0.301297,0.3662684,0.3192434,0.4197537,0.2370784,0.2126565,0.5824849,0.02393096,0.4350661,0.1672866,0.1407178,0.3952921,0.1568138,0.03662834,0.3598088,0.455355,0.09432079,0.2888201,0.1207008,0.07620092,0.0513015,0.08132105,0.1192725,0.08263898,0.2951218,0.5317845,0.04254782,0.03727156,0.2472304,0.1009671,0.1652818,0.3483132,0.6012527,0.5051095,0.5928944,0.2340777,0.1017116,0.4715011,0.546306,0.2426655,0.4787496,0.2293185,0.2942052,0.5356311,0.268025,0.2011406,0.2873133,0.5131683,0.4091651,0.3299292,0.2439326,0.161725,0.5102627,0.331543,0.3621264,0.2663713,0.2638251,0.2209854,0.6380357,0.332317,0.37665,0.6046001,0.2246482,0.07206403,0.2828719,0.3206712,0.1762245,0.7945703,0.2548788,0.1910104,0.1930684,0.1079744,0.1276458,0.6671768,0.2715866,0.6330121,0.4734921,0.05701978,0.04904887,0.34185,0.08910865,0.1215438,0.6056664,0.5774992,0.1105693,0.2081331,0.1083153,0.1467231,0.1079297,0.241439,0.1216063,0.136613,0.2027189,0.4665909,0.7953312,0.3088378,0.2145222,0.3120538
S_1825275_e_012.set,0.05212987,0.09774676,0.031712,0.1091384,0.1559772,0.1214597,0.0341491,0.1379383,0.1020671,0.0367184,0.05912218,0.1924589,0.06287293,0.0826511,0.1131464,0.02313088,0.04836021,0.1472265,0.1599263,0.4045126,0.08636689,0.6443397,0.0955554,0.4950575,0.08678868,0.1490337,0.5977734,0.1954131,0.09343082,0.073721,0.1759789,0.1037776,0.3285269,0.2005232,0.09667532,0.1429622,0.1091791,0.1067764,0.5815109,0.0772339,0.08230171,0.3542547,0.1366173,0.7424729,0.4952372,0.1404957,0.06281522,0.6067256,0.171911,0.4294054,0.6231331,0.1496072,0.1720781,0.09876155,0.5495034,0.1024488,0.3734018,0.4192052,0.200708,0.1166036,0.0195433,0.1426635,0.1405939,0.513423,0.2384191,0.1295707,0.03697282,0.07076387,0.2949671,0.6920732,0.5381779,0.05066503,0.1018287,0.2467827,0.07234805,0.1064295,0.2006524,0.1093251,0.1360167,0.3309214,0.07003853,0.2990073,0.05197513,0.06922407,0.2639455,0.1357257,0.07006483,0.1623951,0.231908,0.09224424,0.16212,0.1438182,0.07665069,0.05204997,0.05399011,0.1883246,0.08250213,0.3327554,0.583501,0.2896175,0.07124795,0.2761928,0.1100595,0.2023934,0.3689288,0.2817432,0.2739172,0.3044069,0.09541985,0.09064724,0.09489216,0.3926018,0.07235326,0.261604,0.1446842,0.08439793,0.2719993,0.04988079,0.07810897,0.1572309,0.2402443,0.2164571,0.1344596,0.07768854,0.08485621,0.2129411,0.1337915,0.3945738,0.3656979,0.05038475,0.06387886,0.5851607,0.2025569,0.4388265,0.5837844,0.183056,0.07545952,0.02942194,0.0821707,0.08680841,0.4852068,0.186271,0.08495418,0.3157262,0.08724831,0.04139838,0.7203965,0.1983831,0.682474,0.516138,0.2501455,0.08324708,0.4264688,0.1227473,0.2239011,0.6785268,0.2895442,0.108935,0.02432549,0.07118492,0.1169915,0.0450549,0.05451848,0.04198613,0.04766986,0.1143489,0.5390342,0.7864674,0.2084502,0.1174143,0.3826343
S_1825275_e_013.set,0.05468828,0.2401684,0.1117083,0.2230109,0.08478639,0.2940535,0.1099766,0.2263033,0.1985527,0.07057784,0.1668414,0.4405535,0.06516705,0.06464108,0.2215871,0.0790251,0.114507,0.2857848,0.3214755,0.6120362,0.4208444,0.6651056,0.1844065,0.6891554,0.3978304,0.4502117,0.7992589,0.3402523,0.1335092,0.3601342,0.5036462,0.2521619,0.5893186,0.4293531,0.2984596,0.3766258,0.4409524,0.1547675,0.7138799,0.316603,0.3540645,0.6083645,0.3297148,0.8303877,0.5645854,0.1613944,0.1256438,0.7746211,0.3754849,0.6020342,0.7673987,0.5289339,0.2366048,0.2726668,0.6826942,0.4481374,0.677004,0.7620343,0.3875958,0.24853,0.2531699,0.3086104,0.3968948,0.7547181,0.4638855,0.4187079,0.1912819,0.3197243,0.6402937,0.8574728,0.7446059,0.4223867,0.3670809,0.4157019,0.3682886,0.3576921,0.4682096,0.3939416,0.3762439,0.6041713,0.05539338,0.4172356,0.1972176,0.1696013,0.3779632,0.1638154,0.01983926,0.4212112,0.5473863,0.08816351,0.2642791,0.207914,0.09759356,0.1917385,0.2605889,0.4302689,0.2216883,0.552402,0.6853913,0.06051036,0.05807664,0.5137577,0.2637697,0.3978749,0.5721947,0.6435553,0.4981048,0.6223543,0.2716629,0.1820181,0.4356716,0.6049116,0.2695095,0.5031623,0.3056543,0.3464298,0.541393,0.3848091,0.2562199,0.3758337,0.4529131,0.4324051,0.3400997,0.349811,0.2642913,0.4937774,0.5125593,0.6492483,0.4561661,0.2197299,0.2130117,0.7446511,0.5514886,0.6983083,0.7280629,0.3633552,0.1833717,0.2575201,0.3762505,0.297358,0.8229198,0.4721988,0.3311961,0.4569612,0.1148199,0.1104995,0.8283368,0.4308878,0.8472238,0.6763728,0.05653228,0.04297139,0.5760465,0.219249,0.3485361,0.7192365,0.5973442,0.1069504,0.2116245,0.1220222,0.1517922,0.08983974,0.2715613,0.158052,0.1334739,0.3559857,0.6859056,0.8769407,0.5660459,0.3605824,0.5639227
S_1825275_e_014.set,0.06227782,0.2027141,0.09535165,0.1778022,0.08065391,0.2730983,0.08861919,0.1925471,0.1492961,0.0893961,0.1320095,0.3721678,0.06757312,0.05660651,0.1568538,0.09411278,0.1117846,0.2302964,0.2554703,0.6243382,0.2772428,0.5178003,0.2112691,0.6480528,0.2325057,0.3584571,0.8043602,0.2424276,0.1341918,0.2225538,0.2297256,0.1811505,0.5956851,0.3643408,0.1975755,0.252171,0.2696002,0.06309786,0.7964078,0.1806327,0.1951724,0.4913889,0.2483198,0.8268649,0.6035238,0.1282666,0.03414354,0.7485549,0.2690999,0.5888629,0.753315,0.4346377,0.2043175,0.2068317,0.7269294,0.2826158,0.5955144,0.7596218,0.2572433,0.1756649,0.1985994,0.1544965,0.2454054,0.711208,0.3776873,0.2712293,0.07817842,0.1962284,0.5759927,0.6821738,0.684235,0.3104115,0.2334175,0.2905206,0.2314887,0.1609648,0.3226978,0.2677632,0.2559496,0.4485984,0.03808875,0.3193891,0.08562165,0.09365807,0.2876498,0.08230351,0.0341701,0.2445695,0.3661872,0.06875663,0.2081738,0.1500556,0.05872772,0.1412805,0.1433706,0.332349,0.2226158,0.557673,0.699633,0.1541479,0.04075328,0.4784712,0.2326121,0.3897679,0.5893135,0.4720183,0.4695486,0.6250803,0.1601645,0.1388733,0.3209465,0.3282763,0.1670568,0.4831321,0.2379679,0.2252301,0.3784249,0.2340349,0.1722066,0.2572208,0.3138972,0.2736692,0.2111934,0.181813,0.1867438,0.3415986,0.430351,0.5369337,0.3708932,0.1445184,0.08752696,0.642898,0.4527249,0.5994401,0.6294174,0.2504565,0.1479814,0.1846296,0.1642705,0.1968119,0.805343,0.3748485,0.2145076,0.4406928,0.1003487,0.04869555,0.8081314,0.2905289,0.7864012,0.6588188,0.1748532,0.03627929,0.5121608,0.1654775,0.3044947,0.7108476,0.3390862,0.1070383,0.1391226,0.1073505,0.1320258,0.04496038,0.1040425,0.07169026,0.05640752,0.2298485,0.6154848,0.8620971,0.4458386,0.2239498,0.4903649
S_1825275_e_015.set,0.04530274,0.1286631,0.0287396,0.09118693,0.1463332,0.1981279,0.03360509,0.07933199,0.1000441,0.02285649,0.08913336,0.3338069,0.1428595,0.06860021,0.1346197,0.02118362,0.05781071,0.1705622,0.1184608,0.3861208,0.1772474,0.6453816,0.05870133,0.5018507,0.1609585,0.2239152,0.7511903,0.1817438,0.04741601,0.2427343,0.2826892,0.1200997,0.4746562,0.2577883,0.09394927,0.1632147,0.2029345,0.06548993,0.473591,0.1256495,0.1445414,0.373445,0.1217689,0.7431884,0.4414052,0.08450674,0.05987456,0.6442108,0.1414176,0.4075438,0.6473193,0.3513883,0.148546,0.07139172,0.6720523,0.2520991,0.5160522,0.523682,0.2260986,0.08279749,0.1001765,0.1869848,0.2340816,0.5561779,0.2587054,0.2058053,0.08707557,0.07498223,0.5428886,0.7227551,0.6617662,0.1673478,0.2156229,0.2065609,0.1312131,0.2399549,0.3488796,0.1621531,0.1942794,0.4236952,0.1083319,0.3004996,0.09412727,0.1070246,0.3620863,0.08981419,0.08881146,0.3608924,0.349125,0.06325118,0.1992723,0.1297359,0.04204216,0.06329821,0.06716697,0.1270164,0.05069446,0.250327,0.6038535,0.2581902,0.1086337,0.2174415,0.0629882,0.1220881,0.3217805,0.4688717,0.4609297,0.4638918,0.1683628,0.0641072,0.2584537,0.448092,0.1784345,0.3580159,0.1901888,0.1777752,0.3810048,0.1417619,0.1384936,0.1882493,0.2143087,0.3150016,0.2471766,0.1257958,0.1180504,0.3408494,0.2467637,0.4841797,0.259447,0.07947071,0.1325037,0.6571884,0.302489,0.4978567,0.5875371,0.1936099,0.04695532,0.1485238,0.2044894,0.1269034,0.7193541,0.2777254,0.0951453,0.2865034,0.05524438,0.06554348,0.7573953,0.2248345,0.7163265,0.5815303,0.2251433,0.05168737,0.4021474,0.05947695,0.1673568,0.6275423,0.3985687,0.04714133,0.08759977,0.06495048,0.05104799,0.05613769,0.1099072,0.0739333,0.04744275,0.158203,0.5457844,0.8357204,0.3412809,0.1266853,0.3821012
S_1825275_e_016.set,0.04209068,0.1311192,0.06816299,0.1343854,0.1259107,0.1759877,0.05957318,0.1528091,0.09363376,0.06101689,0.09020528,0.3195787,0.1076528,0.07894453,0.1197927,0.05162278,0.06008159,0.1905712,0.1770385,0.5506326,0.1556488,0.5597335,0.1111488,0.5845075,0.140105,0.246343,0.668471,0.1742242,0.0682565,0.08301976,0.2213191,0.09179296,0.4612659,0.2215938,0.1181075,0.183643,0.2549837,0.05616591,0.5899522,0.1454811,0.1730764,0.3593888,0.1779163,0.7491049,0.4549338,0.09702937,0.04098814,0.5784265,0.1640287,0.4139321,0.6255271,0.3159909,0.1978467,0.1243943,0.6969699,0.2345094,0.5092729,0.6311696,0.2213448,0.1053346,0.1042933,0.1679165,0.1704325,0.6053959,0.3189488,0.2064213,0.03559567,0.173108,0.3942046,0.6791081,0.6657512,0.1351173,0.255365,0.3104686,0.1088439,0.1369207,0.368503,0.1624892,0.235394,0.5032815,0.05005877,0.2971393,0.05072148,0.06942165,0.2377777,0.04968812,0.05821516,0.1167456,0.3030076,0.02752234,0.1773419,0.08316147,0.02871007,0.09994163,0.1345812,0.1871572,0.1331927,0.3501373,0.5552183,0.2374106,0.06175218,0.2842836,0.123826,0.1987637,0.4344001,0.3854606,0.3750076,0.4973541,0.14592,0.0839901,0.1821216,0.3457266,0.1068038,0.3957871,0.1786289,0.1607651,0.3386726,0.1295352,0.156794,0.2790305,0.1312624,0.2373572,0.2242127,0.1524884,0.1260846,0.3502022,0.2351513,0.4912728,0.2770337,0.05962107,0.06603164,0.5908287,0.2915142,0.5648741,0.5663897,0.1784108,0.07520972,0.08297449,0.1452267,0.09036808,0.6756002,0.2173416,0.1152577,0.3473903,0.06398202,0.03404456,0.7269373,0.2058496,0.722827,0.5889689,0.2447642,0.03942316,0.4774366,0.08796288,0.2035746,0.7017472,0.2841455,0.06005754,0.07129402,0.03836912,0.08988176,0.02207697,0.1296651,0.04591423,0.03192512,0.1224959,0.5183458,0.8205695,0.3259684,0.1378402,0.3864655
S_1825275_e_017.set,0.05690464,0.08330296,0.05552114,0.08107993,0.1088852,0.1258436,0.04863601,0.08999532,0.07782321,0.04154876,0.07328462,0.1789434,0.09349775,0.05788034,0.08586105,0.06771182,0.09270296,0.1151239,0.1927107,0.5009366,0.2370386,0.6283792,0.1106664,0.566029,0.21552,0.3246077,0.7389337,0.2736951,0.09243588,0.1205858,0.2642693,0.1656689,0.4982616,0.3322036,0.1668867,0.1275364,0.1462718,0.09320648,0.6107548,0.1272966,0.14203,0.2818883,0.1730569,0.6847222,0.5267128,0.1178072,0.03844092,0.6114832,0.1556118,0.369661,0.6602241,0.4540659,0.2445658,0.08548893,0.709211,0.3172006,0.5818167,0.5745009,0.1975226,0.1317308,0.1170337,0.1828111,0.1991122,0.6070417,0.284764,0.2189348,0.120479,0.05674862,0.5280249,0.7062773,0.6870309,0.2341861,0.1693837,0.2301026,0.1639251,0.2271142,0.2804614,0.2841837,0.2136144,0.3977717,0.04662779,0.3614007,0.1132378,0.1683434,0.3190374,0.1638696,0.03289804,0.1925549,0.4094202,0.08365971,0.2185302,0.2189963,0.06219482,0.09004788,0.08014955,0.1062654,0.1116807,0.287306,0.5561238,0.2242255,0.04185658,0.2281656,0.09943803,0.1541661,0.3379581,0.3800514,0.5054432,0.4458714,0.1639201,0.09847058,0.1724207,0.3551052,0.148472,0.3780016,0.2530918,0.1894688,0.4135509,0.2151274,0.133594,0.2314022,0.2296826,0.2633183,0.1816235,0.2379399,0.1624395,0.313135,0.3271634,0.4425356,0.2648789,0.09638976,0.179066,0.547378,0.4263565,0.5330117,0.5213217,0.2427005,0.1201188,0.09129255,0.1487058,0.1721635,0.7594572,0.293412,0.1832471,0.3240881,0.06826777,0.07208344,0.7398909,0.2621027,0.7130823,0.5523204,0.1419848,0.02910621,0.4438789,0.1376123,0.1951402,0.6471641,0.2730679,0.07903097,0.09793621,0.05690662,0.09435572,0.05886623,0.119096,0.1247265,0.05727153,0.2108193,0.4945745,0.830525,0.3828576,0.2161843,0.3510984
S_1825275_e_018.set,0.03043843,0.1493913,0.03052188,0.109571,0.1151608,0.173597,0.02452861,0.1218651,0.1026875,0.04396596,0.1157087,0.3070374,0.09106411,0.07296256,0.1748974,0.05219217,0.08503734,0.2328049,0.1143394,0.4402964,0.2048508,0.6255051,0.07082822,0.5121555,0.1960822,0.2568408,0.6097236,0.1542074,0.08762882,0.1455964,0.2734348,0.1108214,0.3883926,0.2136105,0.1159908,0.06566168,0.1243707,0.05627595,0.5957205,0.03839705,0.06567688,0.290056,0.1114798,0.7628324,0.4452388,0.07384513,0.06341745,0.58402,0.1321575,0.4895244,0.6043966,0.3515682,0.1698205,0.0485888,0.6623392,0.2918882,0.4749876,0.5624527,0.1419268,0.06667583,0.133854,0.2088612,0.1693643,0.5568033,0.2359731,0.1555083,0.1347853,0.06878735,0.5378357,0.7241929,0.646777,0.2074989,0.1756283,0.2016769,0.1963907,0.2354621,0.3017365,0.1774486,0.2094389,0.3945528,0.07422678,0.314502,0.1386731,0.1236223,0.2519341,0.07306575,0.09605,0.2519624,0.3485221,0.06114943,0.1430173,0.1063781,0.07422815,0.04449543,0.043736,0.1674492,0.0518503,0.3348722,0.5220301,0.2720138,0.09996258,0.2538084,0.07576895,0.24087,0.3595098,0.5099975,0.4025874,0.4132786,0.08546006,0.05361634,0.273141,0.4346699,0.1054431,0.2946509,0.154169,0.1123678,0.3655879,0.2008567,0.09403045,0.1350383,0.3058026,0.3059916,0.169728,0.144547,0.1170198,0.2400189,0.2730569,0.4471015,0.2944871,0.07595308,0.1086105,0.6257068,0.3048567,0.5329321,0.5980327,0.1690083,0.0744869,0.09741771,0.1589978,0.1323379,0.7245215,0.2476658,0.133216,0.3323848,0.04808662,0.05504478,0.7584598,0.2261659,0.795413,0.600722,0.2124567,0.06643265,0.425345,0.09604675,0.2484891,0.6566671,0.3271628,0.05252744,0.07029713,0.05036507,0.05131128,0.04049968,0.09428385,0.06359512,0.0490322,0.1865673,0.6167868,0.8272262,0.3345286,0.1555162,0.4833207
S_1825275_e_019.set,0.05693247,0.1476688,0.07390391,0.1419838,0.09867476,0.2075917,0.07342662,0.2090258,0.1219431,0.06016361,0.1012516,0.3085146,0.0576507,0.04758136,0.1117995,0.06079572,0.08627783,0.1933342,0.1889334,0.5144042,0.1796066,0.5962519,0.1215403,0.5967868,0.2071518,0.24579,0.6774319,0.1873807,0.08040994,0.1415568,0.2781959,0.1111485,0.4693607,0.219211,0.1214595,0.153889,0.1658082,0.07955056,0.6692473,0.1115167,0.1487017,0.3423538,0.1605209,0.7443019,0.5151337,0.0880088,0.0573966,0.6343278,0.169781,0.4675433,0.6686626,0.309521,0.2557911,0.1088097,0.6672702,0.242751,0.4531346,0.6127849,0.1848963,0.1146934,0.1051672,0.1801637,0.1497423,0.5998504,0.2554284,0.1614759,0.07748898,0.1111684,0.4328852,0.6556848,0.6779324,0.159361,0.1566138,0.2737073,0.1227239,0.1630221,0.2397029,0.1402643,0.1515071,0.3619106,0.06647918,0.3886108,0.1045817,0.112326,0.2835804,0.09470338,0.04339068,0.1878864,0.3388056,0.0438455,0.2422255,0.1478033,0.04131841,0.07005347,0.1275,0.2159471,0.1041034,0.4443912,0.6262657,0.2147284,0.06061841,0.3592287,0.1286065,0.2971432,0.4822256,0.4137225,0.3754552,0.4780224,0.1146333,0.09862461,0.2114506,0.3340898,0.09067423,0.3723124,0.1671456,0.1290938,0.4023236,0.1626753,0.1213208,0.326783,0.1590568,0.2190175,0.1628187,0.1565791,0.1174844,0.2952119,0.2163089,0.4159288,0.3208551,0.08143738,0.1242855,0.5309787,0.2548126,0.4404646,0.539412,0.1567791,0.08685518,0.08348025,0.1734959,0.112447,0.696636,0.1983738,0.1229019,0.3737745,0.0705207,0.05141404,0.7291452,0.1992623,0.7512226,0.5593899,0.1185299,0.04940471,0.4400556,0.09228818,0.2361948,0.6526195,0.2620879,0.06195761,0.08923711,0.04540882,0.06498911,0.04518322,0.1391676,0.07625453,0.04957918,0.1158866,0.5164733,0.8418099,0.2905536,0.1215686,0.3688308
S_1825275_e_020.set,0.04237303,0.1713384,0.0517529,0.1298401,0.0647372,0.1587862,0.03015074,0.1454662,0.1480341,0.03854191,0.1123236,0.3125992,0.04564194,0.04052503,0.1640884,0.04770189,0.07762479,0.2314873,0.1406104,0.5350112,0.2402355,0.603964,0.08160008,0.5304913,0.2368077,0.299016,0.7516372,0.1669653,0.05257867,0.1907305,0.2576945,0.117994,0.528873,0.2122287,0.09771033,0.1302901,0.1032776,0.07264674,0.6021765,0.05695451,0.06470659,0.3766841,0.1221716,0.8035189,0.4755374,0.09008132,0.03958893,0.6510167,0.1669294,0.5464147,0.6071088,0.4030069,0.2294118,0.06089232,0.6746981,0.2938952,0.5313913,0.6626838,0.1550671,0.07102212,0.1434431,0.2065044,0.1519883,0.6589199,0.2057842,0.1437217,0.1227302,0.05003048,0.5240666,0.7520055,0.5224798,0.2403703,0.106812,0.166134,0.2493993,0.2625972,0.1783045,0.2071001,0.09721883,0.2740121,0.0473858,0.3074792,0.1539241,0.1111921,0.3311687,0.09486831,0.04679737,0.2531788,0.3349631,0.07549652,0.2238663,0.1219955,0.04938068,0.02254395,0.0369583,0.1761158,0.06898659,0.4385709,0.5430863,0.225746,0.0595954,0.3334495,0.07922126,0.2824578,0.3904499,0.4508676,0.3382918,0.5061297,0.07693449,0.04750685,0.2969671,0.4152113,0.08583848,0.3841781,0.1071049,0.1097579,0.2908118,0.2033611,0.06240366,0.1414116,0.3492282,0.3674792,0.1093944,0.1543661,0.06034957,0.2050001,0.3289548,0.4591247,0.2764706,0.08373572,0.09241462,0.5888287,0.3963753,0.4557206,0.5176822,0.15497,0.05038174,0.1434184,0.1819588,0.108362,0.7738084,0.2310404,0.08605997,0.3336195,0.07230398,0.0515449,0.7507084,0.2304781,0.8007139,0.5665933,0.166028,0.05483683,0.4343218,0.07268801,0.2222921,0.6508224,0.4424285,0.07893863,0.09515276,0.06654897,0.09905434,0.0566124,0.1292132,0.04587715,0.07170112,0.1716663,0.5660702,0.8318507,0.3389838,0.129593,0.3850577
